* Measurement data measured by REW V5.20.8
* Source: ASIO hdspfire, Analog 1 (1)
* Format: 4M Log Swept Sine, 1 sweep at -12.0 dBFS with no timing reference
* Dated: 13 juin 2022 14:23:28
* REW Settings:
*  C-weighting compensation: Off
*  Target level: 75.0 dB
* Note: ; 
* Measurement: on_0x1400_4_4 juin 13
* Smoothing: None
* Frequency Step: 0.36621094 Hz
* Start Frequency: 0.36621094 Hz
*
* Freq(Hz) SPL(dB) Phase(degrees)
0.366211 16.510 35.9704
0.732422 19.005 68.2558
1.098633 21.540 84.5507
1.464844 21.970 98.7987
1.831055 22.470 135.9764
2.197266 28.475 165.4908
2.563477 34.129 164.7996
2.929688 37.886 152.5199
3.295898 40.114 134.9745
3.662109 41.034 113.8771
4.028320 40.720 89.3549
4.394531 39.151 60.4577
4.760742 36.318 25.0175
5.126953 32.349 -19.4617
5.493164 26.236 -72.2195
5.859375 19.400 106.9350
6.225586 34.497 49.5330
6.591797 41.071 18.9374
6.958008 45.094 -5.6635
7.324219 47.668 -25.9430
7.690430 49.327 -41.8744
8.056641 50.536 -53.2289
8.422852 51.772 -60.9498
8.789062 53.272 -67.6496
9.155273 54.870 -75.4669
9.521484 56.270 -84.2388
9.887695 57.354 -92.2098
10.253906 58.277 -97.4305
10.620117 59.449 -99.5129
10.986328 61.184 -101.0625
11.352539 63.269 -105.2964
11.718750 65.246 -112.7547
12.084961 66.820 -121.9925
12.451172 67.903 -131.1052
12.817383 68.571 -138.2123
13.183594 69.085 -141.8095
13.549805 69.894 -142.0265
13.916016 71.301 -141.7398
14.282227 73.109 -144.1729
14.648438 74.903 -150.0060
15.014648 76.420 -158.1711
15.380859 77.575 -167.3333
15.747070 78.382 -176.3719
16.113281 78.914 175.5837
16.479492 79.291 169.1097
16.845703 79.670 164.2991
17.211914 80.194 160.5661
17.578125 80.907 156.8391
17.944336 81.730 152.2095
18.310547 82.528 146.4199
18.676758 83.187 139.8201
19.042969 83.652 133.0829
19.409180 83.937 126.9573
19.775391 84.125 122.0386
20.141602 84.352 118.4628
20.507812 84.745 115.6549
20.874023 85.330 112.5525
21.240234 86.012 108.3157
21.606445 86.648 102.7972
21.972656 87.127 96.4247
22.338867 87.407 89.8697
22.705078 87.502 83.7950
23.071289 87.477 78.6801
23.437500 87.428 74.6753
23.803711 87.422 71.5507
24.169922 87.494 68.8582
24.536133 87.624 66.2499
24.902344 87.775 63.6742
25.268555 87.937 61.2943
25.634766 88.138 59.2317
26.000977 88.424 57.3441
26.367188 88.812 55.2185
26.733398 89.269 52.4093
27.099609 89.720 48.7115
27.465820 90.086 44.2502
27.832031 90.309 39.4062
28.198242 90.363 34.7129
28.564453 90.260 30.7886
28.930664 90.061 28.2670
29.296875 89.894 27.6127
29.663086 89.942 28.7223
30.029297 90.365 30.5583
30.395508 91.171 31.5253
30.761719 92.205 30.5099
31.127930 93.276 27.3668
31.494141 94.251 22.5852
31.860352 95.073 16.8421
32.226562 95.736 10.7632
32.592773 96.266 4.8259
32.958984 96.710 -0.6917
33.325195 97.125 -5.7298
33.691406 97.545 -10.4009
34.057617 97.982 -14.8701
34.423828 98.426 -19.2256
34.790039 98.870 -23.4318
35.156250 99.318 -27.3973
35.522461 99.795 -31.1023
35.888672 100.324 -34.6819
36.254883 100.909 -38.3866
36.621094 101.524 -42.4310
36.987305 102.129 -46.8580
37.353516 102.690 -51.5228
37.719727 103.200 -56.1918
38.085938 103.681 -60.6846
38.452148 104.165 -64.9869
38.818359 104.677 -69.2664
39.184570 105.212 -73.7651
39.550781 105.742 -78.6425
39.916992 106.228 -83.8806
40.283203 106.641 -89.3029
40.649414 106.975 -94.6642
41.015625 107.249 -99.7538
41.381836 107.490 -104.4701
41.748047 107.729 -108.8406
42.114258 107.985 -112.9789
42.480469 108.261 -117.0094
42.846680 108.552 -121.0110
43.212891 108.858 -125.0149
43.579102 109.173 -129.0396
43.945312 109.497 -133.1182
44.311523 109.822 -137.2937
44.677734 110.142 -141.5877
45.043945 110.450 -145.9771
45.410156 110.740 -150.4025
45.776367 111.017 -154.8072
46.142578 111.292 -159.1788
46.508789 111.573 -163.5648
46.875000 111.860 -168.0481
47.241211 112.146 -172.6979
47.607422 112.417 -177.5312
47.973633 112.662 177.4907
48.339844 112.878 172.4323
48.706055 113.068 167.3431
49.072266 113.240 162.2296
49.438477 113.396 157.0557
49.804688 113.535 151.7672
50.170898 113.649 146.3258
50.537109 113.727 140.7304
50.903320 113.760 135.0168
51.269531 113.743 129.2406
51.635742 113.674 123.4557
52.001953 113.556 117.6990
52.368164 113.390 111.9871
52.734375 113.178 106.3253
53.100586 112.915 100.7230
53.466797 112.597 95.2089
53.833008 112.221 89.8380
54.199219 111.786 84.6876
54.565430 111.297 79.8434
54.931641 110.764 75.3773
55.297852 110.202 71.3254
55.664062 109.625 67.6781
56.030273 109.044 64.3897
56.396484 108.462 61.4106
56.762695 107.877 58.7204
57.128906 107.292 56.3378
57.495117 106.712 54.2924
57.861328 106.151 52.5723
58.227539 105.624 51.0887
58.593750 105.129 49.6993
58.959961 104.647 48.2922
59.326172 104.150 46.8748
59.692383 103.615 45.5995
60.058594 103.042 44.7061
60.424805 102.458 44.4064
60.791016 101.906 44.7668
61.157227 101.426 45.6667
61.523438 101.035 46.8793
61.889648 100.728 48.2161
62.255859 100.496 49.5977
62.622070 100.340 50.9898
62.988281 100.271 52.2904
63.354492 100.289 53.2995
63.720703 100.376 53.8090
64.086914 100.493 53.7231
64.453125 100.604 53.0944
64.819336 100.686 52.0663
65.185547 100.736 50.7855
65.551758 100.758 49.3461
65.917969 100.753 47.7862
66.284180 100.723 46.1198
66.650391 100.664 44.3705
67.016602 100.575 42.5816
67.382812 100.455 40.8035
67.749023 100.310 39.0721
68.115234 100.142 37.3978
68.481445 99.955 35.7684
68.847656 99.747 34.1649
69.213867 99.509 32.5823
69.580078 99.231 31.0549
69.946289 98.901 29.6803
70.312500 98.512 28.6323
70.678711 98.075 28.1409
71.044922 97.622 28.4219
71.411133 97.209 29.5580
71.777344 96.895 31.3945
72.143555 96.714 33.5659
72.509766 96.661 35.6833
72.875977 96.703 37.5233
73.242188 96.815 39.0386
73.608398 96.985 40.2208
73.974609 97.208 40.9865
74.340820 97.465 41.2058
74.707031 97.720 40.8307
75.073242 97.935 39.9844
75.439453 98.090 38.9289
75.805664 98.198 37.9359
76.171875 98.294 37.1381
76.538086 98.415 36.4492
76.904297 98.574 35.6251
77.270508 98.754 34.4404
77.636719 98.916 32.8414
78.002930 99.030 30.9642
78.369141 99.088 29.0373
78.735352 99.110 27.2473
79.101562 99.123 25.6389
79.467773 99.154 24.0962
79.833984 99.206 22.4202
80.200195 99.257 20.4525
80.566406 99.276 18.1626
80.932617 99.236 15.6576
81.298828 99.122 13.1339
81.665039 98.937 10.8094
82.031250 98.701 8.8593
82.397461 98.442 7.3654
82.763672 98.190 6.2940
83.129883 97.963 5.5220
83.496094 97.765 4.9066
83.862305 97.584 4.3635
84.228516 97.408 3.9005
84.594727 97.235 3.5868
84.960938 97.076 3.4791
85.327148 96.949 3.5538
85.693359 96.866 3.6928
86.059570 96.823 3.7376
86.425781 96.802 3.5771
86.791992 96.779 3.2054
87.158203 96.732 2.7208
87.524414 96.656 2.2784
87.890625 96.560 2.0297
88.256836 96.466 2.0666
88.623047 96.402 2.3818
88.989258 96.391 2.8589
89.355469 96.442 3.3066
89.721680 96.547 3.5303
90.087891 96.682 3.4075
90.454102 96.820 2.9246
90.820312 96.939 2.1628
91.186523 97.027 1.2516
91.552734 97.088 0.3158
91.918945 97.131 -0.5602
92.285156 97.166 -1.3453
92.651367 97.205 -2.0534
93.017578 97.257 -2.7242
93.383789 97.322 -3.4047
93.750000 97.399 -4.1340
94.116211 97.485 -4.9340
94.482422 97.577 -5.8052
94.848633 97.673 -6.7335
95.214844 97.776 -7.7109
95.581055 97.892 -8.7584
95.947266 98.022 -9.9364
96.313477 98.163 -11.3275
96.679688 98.302 -12.9966
97.045898 98.422 -14.9545
97.412109 98.505 -17.1453
97.778320 98.542 -19.4655
98.144531 98.532 -21.7999
98.510742 98.481 -24.0551
98.876953 98.400 -26.1774
99.243164 98.297 -28.1487
99.609375 98.181 -29.9687
99.975586 98.057 -31.6411
100.341797 97.931 -33.1736
100.708008 97.811 -34.5908
101.074219 97.701 -35.9421
101.440430 97.599 -37.2888
101.806641 97.497 -38.6718
102.172852 97.385 -40.0804
102.539062 97.257 -41.4485
102.905273 97.116 -42.6892
103.271484 96.976 -43.7531
103.637695 96.855 -44.6780
104.003906 96.766 -45.5915
104.370117 96.704 -46.6525
104.736328 96.649 -47.9658
105.102539 96.575 -49.5275
105.468750 96.464 -51.2365
105.834961 96.311 -52.9529
106.201172 96.127 -54.5715
106.567383 95.926 -56.0695
106.933594 95.719 -57.5045
107.299805 95.501 -58.9636
107.666016 95.260 -60.4929
108.032227 94.975 -62.0543
108.398438 94.634 -63.5251
108.764648 94.233 -64.7339
109.130859 93.782 -65.5068
109.497070 93.303 -65.7133
109.863281 92.825 -65.3001
110.229492 92.380 -64.3124
110.595703 91.988 -62.8858
110.961914 91.654 -61.1960
111.328125 91.366 -59.3724
111.694336 91.105 -57.4176
112.060547 90.858 -55.1912
112.426758 90.641 -52.4893
112.792969 90.502 -49.2081
113.159180 90.498 -45.5107
113.525391 90.668 -41.8471
113.891602 90.990 -38.7410
114.257812 91.405 -36.5105
114.624023 91.844 -35.1677
114.990234 92.262 -34.5175
115.356445 92.643 -34.3145
115.722656 92.990 -34.3712
116.088867 93.316 -34.5965
116.455078 93.630 -34.9777
116.821289 93.935 -35.5362
117.187500 94.229 -36.2861
117.553711 94.506 -37.2141
117.919922 94.762 -38.2820
118.286133 94.997 -39.4431
118.652344 95.213 -40.6589
119.018555 95.414 -41.9097
119.384766 95.606 -43.1951
119.750977 95.791 -44.5267
120.117188 95.970 -45.9164
120.483398 96.140 -47.3679
120.849609 96.303 -48.8759
121.215820 96.457 -50.4334
121.582031 96.608 -52.0406
121.948242 96.754 -53.7110
122.314453 96.898 -55.4686
122.680664 97.035 -57.3378
123.046875 97.162 -59.3343
123.413086 97.275 -61.4596
123.779297 97.368 -63.7042
124.145508 97.438 -66.0528
124.511719 97.481 -68.4868
124.877930 97.495 -70.9811
125.244141 97.477 -73.4996
125.610352 97.424 -75.9922
125.976562 97.341 -78.4027
126.342773 97.235 -80.6871
126.708984 97.116 -82.8367
127.075195 96.995 -84.8925
127.441406 96.875 -86.9370
127.807617 96.751 -89.0609
128.173828 96.607 -91.3176
128.540039 96.422 -93.6882
128.906250 96.181 -96.0755
129.272461 95.876 -98.3272
129.638672 95.512 -100.2794
130.004883 95.106 -101.8070
130.371094 94.684 -102.8652
130.737305 94.266 -103.5005
131.103516 93.865 -103.8195
131.469727 93.479 -103.9279
131.835938 93.097 -103.8748
132.202148 92.708 -103.6350
132.568359 92.306 -103.1287
132.934570 91.895 -102.2592
133.300781 91.486 -100.9448
133.666992 91.096 -99.1364
134.033203 90.745 -96.8223
134.399414 90.451 -94.0329
134.765625 90.233 -90.8416
135.131836 90.106 -87.3563
135.498047 90.076 -83.6985
135.864258 90.147 -79.9814
136.230469 90.321 -76.3054
136.596680 90.600 -72.7775
136.962891 90.985 -69.5344
137.329102 91.469 -66.7467
137.695312 92.037 -64.5898
138.061523 92.659 -63.1956
138.427734 93.299 -62.6094
138.793945 93.919 -62.7734
139.160156 94.492 -63.5406
139.526367 95.003 -64.7109
139.892578 95.450 -66.0769
140.258789 95.845 -67.4717
140.625000 96.209 -68.8047
140.991211 96.563 -70.0740
141.357422 96.919 -71.3455
141.723633 97.281 -72.7059
142.089844 97.643 -74.2161
142.456055 97.995 -75.8881
142.822266 98.330 -77.6921
143.188477 98.647 -79.5817
143.554688 98.948 -81.5194
143.920898 99.239 -83.4900
144.287109 99.524 -85.5007
144.653320 99.803 -87.5701
145.019531 100.078 -89.7141
145.385742 100.344 -91.9360
145.751953 100.602 -94.2262
146.118164 100.852 -96.5686
146.484375 101.095 -98.9538
146.850586 101.336 -101.3873
147.216797 101.574 -103.8895
147.583008 101.810 -106.4845
147.949219 102.040 -109.1837
148.315430 102.258 -111.9778
148.681641 102.465 -114.8423
149.047852 102.662 -117.7549
149.414062 102.852 -120.7137
149.780273 103.039 -123.7429
150.146484 103.221 -126.8806
150.512695 103.394 -130.1559
150.878906 103.549 -133.5681
151.245117 103.679 -137.0841
151.611328 103.781 -140.6499
151.977539 103.858 -144.2131
152.343750 103.914 -147.7402
152.709961 103.955 -151.2224
153.076172 103.987 -154.6685
153.442383 104.011 -158.0948
153.808594 104.029 -161.5153
154.174805 104.039 -164.9395
154.541016 104.043 -168.3760
154.907227 104.040 -171.8333
155.273438 104.029 -175.3181
155.639648 104.008 -178.8307
156.005859 103.976 177.6376
156.372070 103.933 174.1001
156.738281 103.881 170.5671
157.104492 103.823 167.0374
157.470703 103.762 163.4963
157.836914 103.697 159.9197
158.203125 103.627 156.2825
158.569336 103.550 152.5671
158.935547 103.460 148.7673
159.301758 103.354 144.8867
159.667969 103.228 140.9365
160.034180 103.079 136.9321
160.400391 102.905 132.8921
160.766602 102.704 128.8369
161.132812 102.475 124.7881
161.499023 102.217 120.7671
161.865234 101.930 116.7952
162.231445 101.613 112.8926
162.597656 101.265 109.0813
162.963867 100.885 105.3892
163.330078 100.471 101.8541
163.696289 100.024 98.5288
164.062500 99.544 95.4810
164.428711 99.038 92.7866
164.794922 98.517 90.5188
165.161133 97.995 88.7295
165.527344 97.492 87.4366
165.893555 97.026 86.6196
166.259766 96.614 86.2258
166.625977 96.274 86.1797
166.992188 96.018 86.3806
167.358398 95.860 86.6873
167.724609 95.805 86.9133
168.090820 95.845 86.8540
168.457031 95.961 86.3405
168.823242 96.123 85.2865
169.189453 96.306 83.6954
169.555664 96.490 81.6278
169.921875 96.664 79.1564
170.288086 96.823 76.3350
170.654297 96.964 73.1930
171.020508 97.080 69.7494
171.386719 97.164 66.0322
171.752930 97.209 62.0906
172.119141 97.208 57.9919
172.485352 97.162 53.8098
172.851562 97.072 49.6100
173.217773 96.942 45.4415
173.583984 96.777 41.3368
173.950195 96.581 37.3165
174.316406 96.357 33.3973
174.682617 96.107 29.5967
175.048828 95.834 25.9333
175.415039 95.541 22.4261
175.781250 95.231 19.0912
176.147461 94.909 15.9407
176.513672 94.578 12.9823
176.879883 94.243 10.2174
177.246094 93.908 7.6398
177.612305 93.577 5.2330
177.978516 93.253 2.9717
178.344727 92.935 0.8257
178.710938 92.619 -1.2303
179.077148 92.302 -3.2059
179.443359 91.975 -5.0851
179.809570 91.634 -6.8225
180.175781 91.277 -8.3517
180.541992 90.907 -9.5994
180.908203 90.534 -10.5046
181.274414 90.167 -11.0328
181.640625 89.819 -11.1758
182.006836 89.499 -10.9402
182.373047 89.219 -10.3345
182.739258 88.988 -9.3687
183.105469 88.822 -8.0717
183.471680 88.737 -6.5133
183.837891 88.745 -4.8102
184.204102 88.853 -3.1099
184.570312 89.060 -1.5670
184.936523 89.359 -0.3295
185.302734 89.738 0.4647
185.668945 90.179 0.6970
186.035156 90.656 0.2896
186.401367 91.143 -0.7748
186.767578 91.613 -2.4490
187.133789 92.048 -4.6411
187.500000 92.436 -7.2418
187.866211 92.770 -10.1483
188.232422 93.050 -13.2744
188.598633 93.275 -16.5494
188.964844 93.444 -19.9110
189.331055 93.558 -23.2980
189.697266 93.619 -26.6506
190.063477 93.630 -29.9131
190.429688 93.596 -33.0371
190.795898 93.521 -35.9817
191.162109 93.411 -38.7100
191.528320 93.273 -41.1876
191.894531 93.114 -43.3862
192.260742 92.943 -45.2921
192.626953 92.770 -46.9144
192.993164 92.603 -48.2838
193.359375 92.446 -49.4401
193.725586 92.301 -50.4135
194.091797 92.167 -51.2157
194.458008 92.046 -51.8463
194.824219 91.944 -52.3112
195.190430 91.867 -52.6388
195.556641 91.819 -52.8829
195.922852 91.799 -53.1082
196.289062 91.802 -53.3699
196.655273 91.822 -53.7020
197.021484 91.849 -54.1160
197.387695 91.879 -54.6062
197.753906 91.901 -55.1532
198.120117 91.912 -55.7224
198.486328 91.905 -56.2611
198.852539 91.880 -56.7009
199.218750 91.840 -56.9698
199.584961 91.793 -57.0077
199.951172 91.750 -56.7810
200.317383 91.724 -56.2876
200.683594 91.724 -55.5505
201.049805 91.759 -54.6042
201.416016 91.833 -53.4843
201.782227 91.953 -52.2268
202.148438 92.124 -50.8778
202.514648 92.352 -49.5004
202.880859 92.639 -48.1713
203.247070 92.981 -46.9674
203.613281 93.374 -45.9495
203.979492 93.810 -45.1564
204.345703 94.285 -44.6118
204.711914 94.794 -44.3380
205.078125 95.336 -44.3639
205.444336 95.904 -44.7271
205.810547 96.494 -45.4670
206.176758 97.097 -46.6187
206.542969 97.702 -48.2053
206.909180 98.299 -50.2367
207.275391 98.877 -52.7061
207.641602 99.423 -55.5885
208.007812 99.928 -58.8408
208.374023 100.382 -62.4037
208.740234 100.778 -66.2062
209.106445 101.114 -70.1719
209.472656 101.388 -74.2236
209.838867 101.601 -78.2883
210.205078 101.759 -82.2999
210.571289 101.865 -86.2012
210.937500 101.927 -89.9470
211.303711 101.954 -93.5065
211.669922 101.954 -96.8650
212.036133 101.933 -100.0229
212.402344 101.898 -102.9929
212.768555 101.854 -105.7926
213.134766 101.802 -108.4384
213.500977 101.744 -110.9393
213.867188 101.681 -113.2961
214.233398 101.614 -115.5031
214.599609 101.548 -117.5537
214.965820 101.487 -119.4482
215.332031 101.436 -121.1984
215.698242 101.401 -122.8301
216.064453 101.385 -124.3796
216.430664 101.389 -125.8873
216.796875 101.412 -127.3903
217.163086 101.454 -128.9208
217.529297 101.513 -130.5072
217.895508 101.586 -132.1776
218.261719 101.670 -133.9592
218.627930 101.759 -135.8728
218.994141 101.847 -137.9253
219.360352 101.928 -140.1062
219.726562 101.995 -142.3898
220.092773 102.048 -144.7439
220.458984 102.086 -147.1393
220.825195 102.108 -149.5549
221.191406 102.117 -151.9772
221.557617 102.114 -154.3956
221.923828 102.097 -156.7986
222.290039 102.070 -159.1736
222.656250 102.033 -161.5111
223.022461 101.990 -163.8077
223.388672 101.941 -166.0681
223.754883 101.889 -168.3000
224.121094 101.834 -170.5101
224.487305 101.776 -172.7015
224.853516 101.715 -174.8771
225.219727 101.655 -177.0448
225.585938 101.594 -179.2225
225.952148 101.532 178.5643
226.318359 101.466 176.2921
226.684570 101.390 173.9502
227.050781 101.296 171.5514
227.416992 101.178 169.1342
227.783203 101.032 166.7571
228.149414 100.860 164.4882
228.515625 100.667 162.3911
228.881836 100.462 160.5133
229.248047 100.255 158.8766
229.614258 100.061 157.4739
229.980469 99.889 156.2703
230.346680 99.749 155.2065
230.712891 99.646 154.2050
231.079102 99.581 153.1782
231.445312 99.552 152.0411
231.811523 99.549 150.7255
232.177734 99.561 149.1918
232.543945 99.579 147.4344
232.910156 99.591 145.4756
233.276367 99.594 143.3518
233.642578 99.586 141.0986
234.008789 99.567 138.7391
234.375000 99.539 136.2810
234.741211 99.503 133.7195
235.107422 99.458 131.0447
235.473633 99.403 128.2469
235.839844 99.337 125.3198
236.206055 99.255 122.2607
236.572266 99.156 119.0717
236.938477 99.036 115.7606
237.304688 98.894 112.3423
237.670898 98.728 108.8361
238.037109 98.541 105.2581
238.403320 98.337 101.6117
238.769531 98.118 97.8773
239.135742 97.891 94.0087
239.501953 97.654 89.9376
239.868164 97.405 85.5867
240.234375 97.134 80.8827
240.600586 96.831 75.7671
240.966797 96.482 70.2000
241.333008 96.073 64.1567
241.699219 95.592 57.6237
242.065430 95.029 50.5916
242.431641 94.375 43.0498
242.797852 93.625 34.9806
243.164062 92.779 26.3500
243.530273 91.845 17.0994
243.896484 90.844 7.1393
244.262695 89.811 -3.6456
244.628906 88.802 -15.3640
244.995117 87.898 -28.0413
245.361328 87.192 -41.5039
245.727539 86.772 -55.2972
246.093750 86.679 -68.7566
246.459961 86.896 -81.2521
246.826172 87.361 -92.4261
247.192383 87.996 -102.2485
247.558594 88.734 -110.9125
247.924805 89.521 -118.6947
248.291016 90.314 -125.8556
248.657227 91.083 -132.5922
249.023438 91.803 -139.0289
249.389648 92.462 -145.2313
249.755859 93.051 -151.2242
250.122070 93.569 -157.0107
250.488281 94.018 -162.5859
250.854492 94.402 -167.9465
251.220703 94.730 -173.0955
251.586914 95.009 -178.0448
251.953125 95.244 177.1857
252.319336 95.442 172.5702
252.685547 95.607 168.0811
253.051758 95.743 163.6926
253.417969 95.852 159.3833
253.784180 95.936 155.1362
254.150391 95.998 150.9366
254.516602 96.040 146.7684
254.882812 96.064 142.6118
255.249023 96.072 138.4427
255.615234 96.064 134.2355
255.981445 96.038 129.9679
256.347656 95.991 125.6255
256.713867 95.920 121.2040
257.080078 95.821 116.7065
257.446289 95.691 112.1409
257.812500 95.526 107.5160
258.178711 95.321 102.8455
258.544922 95.068 98.1566
258.911133 94.762 93.5061
259.277344 94.394 88.9937
259.643555 93.965 84.7679
260.009766 93.487 81.0131
260.375977 92.990 77.9043
260.742188 92.523 75.5289
261.108398 92.148 73.7893
261.474609 91.917 72.3544
261.840820 91.848 70.7354
262.207031 91.921 68.4720
262.573242 92.087 65.2915
262.939453 92.297 61.1360
263.305664 92.517 56.0901
263.671875 92.728 50.2903
264.038086 92.926 43.8690
264.404297 93.113 36.9359
264.770508 93.294 29.5820
265.136719 93.474 21.8921
265.502930 93.657 13.9524
265.869141 93.848 5.8512
266.235352 94.053 -2.3268
266.601562 94.275 -10.5051
266.967773 94.516 -18.6179
267.333984 94.777 -26.6094
267.700195 95.057 -34.4315
268.066406 95.355 -42.0474
268.432617 95.671 -49.4357
268.798828 96.003 -56.5956
269.165039 96.348 -63.5466
269.531250 96.703 -70.3203
269.897461 97.061 -76.9473
270.263672 97.411 -83.4448
270.629883 97.748 -89.8135
270.996094 98.064 -96.0427
271.362305 98.357 -102.1208
271.728516 98.626 -108.0430
272.094727 98.868 -113.8132
272.460938 99.082 -119.4370
272.827148 99.265 -124.9131
273.193359 99.413 -130.2256
273.559570 99.527 -135.3477
273.925781 99.608 -140.2500
274.291992 99.660 -144.9116
274.658203 99.689 -149.3289
275.024414 99.700 -153.5137
275.390625 99.697 -157.4873
275.756836 99.682 -161.2732
276.123047 99.654 -164.8916
276.489258 99.612 -168.3599
276.855469 99.555 -171.6931
277.221680 99.477 -174.8975
277.587891 99.374 -177.9585
277.954102 99.236 179.1714
278.320312 99.062 176.5769
278.686523 98.853 174.3711
279.052734 98.621 172.6729
279.418945 98.386 171.5757
279.785156 98.176 171.1187
280.151367 98.020 171.2659
280.517578 97.946 171.9062
280.883789 97.976 172.8638
281.250000 98.118 173.9246
281.616211 98.371 174.8657
281.982422 98.721 175.4932
282.348633 99.146 175.6685
282.714844 99.622 175.3213
283.081055 100.126 174.4395
283.447266 100.641 173.0459
283.813477 101.153 171.1763
284.179688 101.654 168.8647
284.545898 102.135 166.1416
284.912109 102.586 163.0386
285.278320 103.001 159.5938
285.644531 103.371 155.8560
286.010742 103.691 151.8843
286.376953 103.956 147.7449
286.743164 104.165 143.5083
287.109375 104.319 139.2449
287.475586 104.422 135.0195
287.841797 104.479 130.8877
288.208008 104.498 126.8882
288.574219 104.489 123.0391
288.940430 104.460 119.3364
289.306641 104.419 115.7551
289.672852 104.368 112.2603
290.039062 104.308 108.8142
290.405273 104.239 105.3899
290.771484 104.155 101.9763
291.137695 104.055 98.5779
291.503906 103.937 95.2097
291.870117 103.800 91.8889
292.236328 103.647 88.6292
292.602539 103.479 85.4341
292.968750 103.299 82.3010
293.334961 103.106 79.2202
293.701172 102.902 76.1821
294.067383 102.687 73.1770
294.433594 102.458 70.1975
294.799805 102.216 67.2351
295.166016 101.958 64.2834
295.532227 101.682 61.3335
295.898438 101.387 58.3772
296.264648 101.067 55.4053
296.630859 100.720 52.4075
296.997070 100.337 49.3762
297.363281 99.910 46.3110
297.729492 99.426 43.2292
298.095703 98.872 40.1748
298.461914 98.234 37.2239
298.828125 97.496 34.4861
299.194336 96.645 32.1050
299.560547 95.669 30.2617
299.926758 94.553 29.1987
