* Measurement data measured by REW V5.20.8
* Source: ASIO hdspfire, Analog 1 (1)
* Format: 4M Log Swept Sine, 1 sweep at -12.0 dBFS with no timing reference
* Dated: 13 juin 2022 14:13:16
* REW Settings:
*  C-weighting compensation: Off
*  Target level: 75.0 dB
* Note: ; 
* Measurement: on_0x1400_2_3 juin 13
* Smoothing: None
* Frequency Step: 0.36621094 Hz
* Start Frequency: 0.36621094 Hz
*
* Freq(Hz) SPL(dB) Phase(degrees)
0.366211 20.232 6.8177
0.732422 18.588 27.7017
1.098633 19.881 55.7915
1.464844 22.241 63.5662
1.831055 22.315 58.0911
2.197266 17.618 51.5685
2.563477 12.913 174.1899
2.929688 25.306 174.4474
3.295898 29.802 154.9374
3.662109 31.191 130.6652
4.028320 29.900 99.3587
4.394531 25.712 44.1307
4.760742 27.239 -50.4316
5.126953 32.276 -101.7431
5.493164 34.103 -138.8234
5.859375 32.903 178.2070
6.225586 31.342 100.7297
6.591797 37.273 29.8444
6.958008 42.453 -5.4663
7.324219 45.647 -28.9764
7.690430 47.563 -45.7745
8.056641 48.827 -56.4031
8.422852 50.114 -61.9458
8.789062 51.835 -66.1042
9.155273 53.771 -72.3239
9.521484 55.503 -80.6206
9.887695 56.862 -88.9832
10.253906 57.979 -95.3242
10.620117 59.215 -98.9671
10.986328 60.880 -101.7999
11.352539 62.861 -106.6390
11.718750 64.772 -114.3104
12.084961 66.315 -123.7017
12.451172 67.375 -133.0316
12.817383 67.994 -140.3721
13.183594 68.413 -143.9586
13.549805 69.117 -143.5159
13.916016 70.514 -142.0366
14.282227 72.425 -143.5003
14.648438 74.362 -148.9580
15.014648 76.006 -157.2757
15.380859 77.246 -167.0046
15.747070 78.072 -176.9368
16.113281 78.530 173.9471
16.479492 78.714 166.5583
16.845703 78.798 161.5535
17.211914 79.027 158.8089
17.578125 79.592 156.9451
17.944336 80.465 154.0225
18.310547 81.422 149.0082
18.676758 82.237 142.1536
19.042969 82.777 134.4036
19.409180 83.012 126.8947
19.775391 83.004 120.7061
20.141602 82.910 116.5531
20.507812 82.944 114.2640
20.874023 83.239 112.5699
21.240234 83.726 110.0048
21.606445 84.205 106.0760
21.972656 84.513 101.3469
22.338867 84.595 96.8442
22.705078 84.510 93.5186
23.071289 84.397 91.8158
23.437500 84.399 91.4171
23.803711 84.547 91.5431
24.169922 84.791 91.7322
24.536133 85.079 92.1993
24.902344 85.458 93.3705
25.268555 86.052 95.0971
25.634766 86.934 96.3969
26.000977 88.030 96.1837
26.367188 89.185 94.0865
26.733398 90.273 90.4263
27.099609 91.239 85.7571
27.465820 92.076 80.5546
27.832031 92.802 75.1357
28.198242 93.436 69.7067
28.564453 94.000 64.4299
28.930664 94.526 59.4388
29.296875 95.054 54.7730
29.663086 95.632 50.2902
30.029297 96.282 45.6604
30.395508 96.989 40.5096
30.761719 97.703 34.6198
31.127930 98.366 28.0290
31.494141 98.935 20.9855
31.860352 99.400 13.8292
32.226562 99.775 6.8714
32.592773 100.092 0.3026
32.958984 100.386 -5.8511
33.325195 100.688 -11.7006
33.691406 101.003 -17.3988
34.057617 101.318 -23.0359
34.423828 101.619 -28.5903
34.790039 101.899 -33.9594
35.156250 102.169 -39.0389
35.522461 102.448 -43.7996
35.888672 102.754 -48.3196
36.254883 103.096 -52.7504
36.621094 103.463 -57.2353
36.987305 103.834 -61.8372
37.353516 104.190 -66.5192
37.719727 104.521 -71.1799
38.085938 104.833 -75.7189
38.452148 105.140 -80.0956
38.818359 105.455 -84.3547
39.184570 105.786 -88.6017
39.550781 106.124 -92.9409
39.916992 106.453 -97.4147
40.283203 106.758 -101.9824
40.649414 107.031 -106.5471
41.015625 107.277 -111.0096
41.381836 107.508 -115.3181
41.748047 107.738 -119.4880
42.114258 107.974 -123.5802
42.480469 108.214 -127.6528
42.846680 108.453 -131.7246
43.212891 108.690 -135.7742
43.579102 108.925 -139.7700
43.945312 109.165 -143.7087
44.311523 109.412 -147.6277
44.677734 109.670 -151.5850
45.043945 109.935 -155.6245
45.410156 110.201 -159.7563
45.776367 110.464 -163.9661
46.142578 110.726 -168.2456
46.508789 110.988 -172.6155
46.875000 111.251 -177.1208
47.241211 111.506 178.1970
47.607422 111.744 173.3323
47.973633 111.957 168.3198
48.339844 112.142 163.2155
48.706055 112.303 158.0565
49.072266 112.447 152.8356
49.438477 112.576 147.4989
49.804688 112.687 141.9780
50.170898 112.765 136.2317
50.537109 112.795 130.2734
50.903320 112.764 124.1726
51.269531 112.667 118.0286
51.635742 112.507 111.9360
52.001953 112.290 105.9551
52.368164 112.027 100.0999
52.734375 111.724 94.3486
53.100586 111.380 88.6692
53.466797 110.990 83.0488
53.833008 110.547 77.5103
54.199219 110.046 72.1094
54.565430 109.489 66.9193
54.931641 108.879 62.0093
55.297852 108.225 57.4288
55.664062 107.536 53.2052
56.030273 106.822 49.3510
56.396484 106.090 45.8743
56.762695 105.351 42.7793
57.128906 104.619 40.0491
57.495117 103.909 37.6165
57.861328 103.230 35.3461
58.227539 102.584 33.0548
58.593750 101.950 30.5708
58.959961 101.296 27.8016
59.326172 100.585 24.7689
59.692383 99.787 21.5906
60.058594 98.888 18.4264
60.424805 97.880 15.4122
60.791016 96.760 12.6158
61.157227 95.509 10.0450
61.523438 94.083 7.7249
61.889648 92.403 5.8354
62.255859 90.356 4.9028
62.622070 87.793 6.1403
62.988281 84.546 12.3793
63.354492 80.768 30.6624
63.720703 78.859 68.3787
64.086914 81.036 100.6779
64.453125 83.912 115.3333
64.819336 86.233 121.6409
65.185547 88.044 124.2637
65.551758 89.463 125.0488
65.917969 90.577 124.9700
66.284180 91.463 124.6516
66.650391 92.203 124.4480
67.016602 92.872 124.4343
67.382812 93.522 124.4656
67.749023 94.169 124.3291
68.115234 94.803 123.8986
68.481445 95.411 123.1780
68.847656 95.991 122.2361
69.213867 96.550 121.1140
69.580078 97.096 119.7844
69.946289 97.628 118.1809
70.312500 98.133 116.2634
70.678711 98.598 114.0591
71.044922 99.012 111.6570
71.411133 99.375 109.1677
71.777344 99.694 106.6799
72.143555 99.981 104.2336
72.509766 100.247 101.8196
72.875977 100.497 99.3975
73.242188 100.732 96.9240
73.608398 100.947 94.3760
73.974609 101.135 91.7642
74.340820 101.291 89.1326
74.707031 101.416 86.5449
75.073242 101.518 84.0581
75.439453 101.607 81.6943
75.805664 101.694 79.4241
76.171875 101.784 77.1787
76.538086 101.872 74.8877
76.904297 101.950 72.5189
77.270508 102.009 70.0947
77.636719 102.048 67.6704
78.002930 102.070 65.2920
78.369141 102.083 62.9622
78.735352 102.094 60.6389
79.101562 102.096 58.2714
79.467773 102.080 55.8444
79.833984 102.036 53.4025
80.200195 101.960 51.0327
80.566406 101.859 48.8204
80.932617 101.748 46.8054
81.298828 101.640 44.9642
81.665039 101.543 43.2316
82.031250 101.457 41.5416
82.397461 101.377 39.8608
82.763672 101.301 38.1874
83.129883 101.230 36.5249
83.496094 101.167 34.8558
83.862305 101.113 33.1329
84.228516 101.064 31.2981
84.594727 101.010 29.3102
84.960938 100.941 27.1660
85.327148 100.844 24.9038
85.693359 100.714 22.5913
86.059570 100.548 20.3071
86.425781 100.352 18.1207
86.791992 100.132 16.0742
87.158203 99.900 14.1719
87.524414 99.661 12.3840
87.890625 99.419 10.6637
88.256836 99.172 8.9695
88.623047 98.914 7.2794
88.989258 98.641 5.5850
89.355469 98.351 3.8726
89.721680 98.037 2.1150
90.087891 97.686 0.2882
90.454102 97.278 -1.5859
90.820312 96.791 -3.3967
91.186523 96.210 -4.9324
91.552734 95.538 -5.9156
91.918945 94.800 -6.0878
92.285156 94.038 -5.3126
92.651367 93.297 -3.6368
93.017578 92.598 -1.2202
93.383789 91.935 1.8535
93.750000 91.299 5.7252
94.116211 90.720 10.6968
94.482422 90.285 16.9266
94.848633 90.100 24.0802
95.214844 90.217 31.3381
95.581055 90.594 37.8896
95.947266 91.145 43.3605
96.313477 91.795 47.7535
96.679688 92.506 51.1711
97.045898 93.256 53.6630
97.412109 94.019 55.2473
97.778320 94.769 55.9813
98.144531 95.479 55.9885
98.510742 96.136 55.4321
98.876953 96.737 54.4711
99.243164 97.285 53.2274
99.609375 97.788 51.7760
99.975586 98.255 50.1519
100.341797 98.687 48.3668
100.708008 99.087 46.4282
101.074219 99.455 44.3517
101.440430 99.788 42.1647
101.806641 100.086 39.9021
102.172852 100.352 37.5964
102.539062 100.589 35.2688
102.905273 100.800 32.9282
103.271484 100.986 30.5774
103.637695 101.146 28.2224
104.003906 101.281 25.8809
104.370117 101.391 23.5785
104.736328 101.481 21.3402
105.102539 101.554 19.1791
105.468750 101.615 17.0917
105.834961 101.667 15.0619
106.201172 101.711 13.0713
106.567383 101.746 11.1089
106.933594 101.771 9.1733
107.299805 101.784 7.2712
107.666016 101.786 5.4117
108.032227 101.777 3.6046
108.398438 101.758 1.8605
108.764648 101.731 0.1909
109.130859 101.698 -1.3943
109.497070 101.661 -2.8931
109.863281 101.624 -4.3141
110.229492 101.589 -5.6747
110.595703 101.555 -6.9916
110.961914 101.521 -8.2720
111.328125 101.486 -9.5117
111.694336 101.451 -10.7017
112.060547 101.420 -11.8413
112.426758 101.393 -12.9449
112.792969 101.372 -14.0376
113.159180 101.352 -15.1379
113.525391 101.331 -16.2433
113.891602 101.305 -17.3242
114.257812 101.273 -18.3394
114.624023 101.241 -19.2598
114.990234 101.219 -20.0887
115.356445 101.210 -20.8651
115.722656 101.218 -21.6433
116.088867 101.236 -22.4657
116.455078 101.258 -23.3439
116.821289 101.279 -24.2609
117.187500 101.297 -25.1881
117.553711 101.313 -26.1045
117.919922 101.330 -27.0034
118.286133 101.349 -27.8875
118.652344 101.369 -28.7563
119.018555 101.391 -29.6022
119.384766 101.416 -30.4139
119.750977 101.448 -31.1893
120.117188 101.492 -31.9423
120.483398 101.549 -32.7017
120.849609 101.620 -33.5022
121.215820 101.702 -34.3732
121.582031 101.791 -35.3312
121.948242 101.881 -36.3773
122.314453 101.968 -37.4985
122.680664 102.048 -38.6682
123.046875 102.122 -39.8523
123.413086 102.191 -41.0182
123.779297 102.261 -42.1471
124.145508 102.337 -43.2452
124.511719 102.426 -44.3434
124.877930 102.527 -45.4851
125.244141 102.638 -46.7087
125.610352 102.753 -48.0323
125.976562 102.868 -49.4526
126.342773 102.980 -50.9548
126.708984 103.088 -52.5248
127.075195 103.193 -54.1567
127.441406 103.292 -55.8507
127.807617 103.386 -57.6041
128.173828 103.473 -59.4067
128.540039 103.552 -61.2429
128.906250 103.625 -63.1011
129.272461 103.695 -64.9830
129.638672 103.763 -66.9049
130.004883 103.827 -68.8859
130.371094 103.884 -70.9335
130.737305 103.929 -73.0355
131.103516 103.961 -75.1631
131.469727 103.980 -77.2859
131.835938 103.990 -79.3885
132.202148 103.995 -81.4774
132.568359 103.995 -83.5734
132.934570 103.989 -85.6945
133.300781 103.972 -87.8394
133.666992 103.941 -89.9830
134.033203 103.894 -92.0862
134.399414 103.834 -94.1104
134.765625 103.767 -96.0316
135.131836 103.699 -97.8451
135.498047 103.634 -99.5614
135.864258 103.578 -101.1987
136.230469 103.532 -102.7788
136.596680 103.499 -104.3246
136.962891 103.479 -105.8618
137.329102 103.472 -107.4167
137.695312 103.477 -109.0143
138.061523 103.491 -110.6737
138.427734 103.512 -112.4072
138.793945 103.535 -114.2195
139.160156 103.559 -116.1075
139.526367 103.580 -118.0610
139.892578 103.596 -120.0618
140.258789 103.608 -122.0874
140.625000 103.616 -124.1193
140.991211 103.624 -126.1484
141.357422 103.635 -128.1808
141.723633 103.651 -130.2338
142.089844 103.672 -132.3284
142.456055 103.697 -134.4791
142.822266 103.722 -136.6902
143.188477 103.746 -138.9557
143.554688 103.770 -141.2673
143.920898 103.795 -143.6222
144.287109 103.823 -146.0272
144.653320 103.853 -148.4980
145.019531 103.887 -151.0535
145.385742 103.920 -153.7096
145.751953 103.951 -156.4751
146.118164 103.977 -159.3507
146.484375 103.994 -162.3306
146.850586 103.999 -165.4038
147.216797 103.991 -168.5558
147.583008 103.968 -171.7676
147.949219 103.929 -175.0171
148.315430 103.877 -178.2826
148.681641 103.813 178.4507
149.047852 103.741 175.1853
149.414062 103.663 171.9104
149.780273 103.579 168.6078
150.146484 103.488 165.2629
150.512695 103.388 161.8741
150.878906 103.274 158.4561
151.245117 103.148 155.0326
151.611328 103.010 151.6265
151.977539 102.864 148.2471
152.343750 102.714 144.8873
152.709961 102.562 141.5262
153.076172 102.408 138.1398
153.442383 102.248 134.7100
153.808594 102.079 131.2312
154.174805 101.897 127.7111
154.541016 101.699 124.1682
154.907227 101.483 120.6279
155.273438 101.249 117.1180
155.639648 100.998 113.6635
156.005859 100.733 110.2816
156.372070 100.457 106.9819
156.738281 100.171 103.7668
157.104492 99.878 100.6375
157.470703 99.577 97.5984
157.836914 99.271 94.6573
158.203125 98.962 91.8213
158.569336 98.652 89.0907
158.935547 98.344 86.4567
159.301758 98.039 83.9056
159.667969 97.738 81.4265
160.034180 97.440 79.0148
160.400391 97.145 76.6702
160.766602 96.854 74.3884
161.132812 96.568 72.1555
161.499023 96.287 69.9503
161.865234 96.006 67.7556
162.231445 95.722 65.5697
162.597656 95.428 63.4113
162.963867 95.123 61.3137
163.330078 94.806 59.3143
163.696289 94.480 57.4442
164.062500 94.147 55.7263
164.428711 93.811 54.1769
164.794922 93.476 52.8090
165.161133 93.146 51.6289
165.527344 92.828 50.6300
165.893555 92.527 49.7855
166.259766 92.245 49.0526
166.625977 91.981 48.3846
166.992188 91.729 47.7485
167.358398 91.482 47.1376
167.724609 91.233 46.5737
168.090820 90.978 46.0988
168.457031 90.716 45.7616
168.823242 90.450 45.6071
169.189453 90.181 45.6742
169.555664 89.917 45.9987
169.921875 89.662 46.6149
170.288086 89.429 47.5472
170.654297 89.231 48.7882
171.020508 89.083 50.2760
171.386719 88.991 51.8973
171.752930 88.953 53.5280
172.119141 88.952 55.0906
172.485352 88.973 56.5925
172.851562 89.005 58.1122
173.217773 89.049 59.7457
173.583984 89.118 61.5503
173.950195 89.223 63.5168
174.316406 89.374 65.5911
174.682617 89.570 67.7223
175.048828 89.811 69.8975
175.415039 90.099 72.1311
175.781250 90.445 74.4250
176.147461 90.862 76.7250
176.513672 91.361 78.9111
176.879883 91.942 80.8273
177.246094 92.595 82.3264
177.612305 93.301 83.3064
177.978516 94.040 83.7213
178.344727 94.791 83.5740
178.710938 95.539 82.9015
179.077148 96.271 81.7618
179.443359 96.979 80.2217
179.809570 97.659 78.3461
180.175781 98.309 76.1910
180.541992 98.929 73.7994
180.908203 99.521 71.2014
181.274414 100.086 68.4167
181.640625 100.621 65.4618
182.006836 101.128 62.3531
182.373047 101.604 59.1132
182.739258 102.049 55.7688
183.105469 102.463 52.3505
183.471680 102.848 48.8866
183.837891 103.209 45.3998
184.204102 103.548 41.9021
184.570312 103.870 38.3931
184.936523 104.179 34.8597
185.302734 104.478 31.2772
185.668945 104.767 27.6136
186.035156 105.045 23.8351
186.401367 105.305 19.9144
186.767578 105.543 15.8385
187.133789 105.749 11.6146
187.500000 105.918 7.2711
187.866211 106.043 2.8531
188.232422 106.123 -1.5858
188.598633 106.158 -5.9943
188.964844 106.152 -10.3300
189.331055 106.109 -14.5643
189.697266 106.031 -18.6793
190.063477 105.924 -22.6636
190.429688 105.788 -26.5059
190.795898 105.627 -30.1938
191.162109 105.445 -33.7172
191.528320 105.244 -37.0708
191.894531 105.029 -40.2593
192.260742 104.801 -43.2928
192.626953 104.563 -46.1819
192.993164 104.313 -48.9297
193.359375 104.052 -51.5305
193.725586 103.781 -53.9733
194.091797 103.503 -56.2488
194.458008 103.223 -58.3558
194.824219 102.942 -60.3015
195.190430 102.663 -62.0984
195.556641 102.389 -63.7592
195.922852 102.122 -65.2971
196.289062 101.863 -66.7302
196.655273 101.615 -68.0853
197.021484 101.378 -69.3967
197.387695 101.149 -70.6982
197.753906 100.923 -72.0139
198.120117 100.694 -73.3516
198.486328 100.458 -74.7046
198.852539 100.209 -76.0566
199.218750 99.945 -77.3883
199.584961 99.663 -78.6780
199.951172 99.360 -79.8988
200.317383 99.033 -81.0162
200.683594 98.681 -81.9865
201.049805 98.305 -82.7582
201.416016 97.906 -83.2760
201.782227 97.489 -83.4834
202.148438 97.062 -83.3258
202.514648 96.636 -82.7565
202.880859 96.223 -81.7458
203.247070 95.841 -80.2915
203.613281 95.505 -78.4255
203.979492 95.232 -76.2157
204.345703 95.034 -73.7605
204.711914 94.918 -71.1844
205.078125 94.887 -68.6295
205.444336 94.933 -66.2383
205.810547 95.043 -64.1281
206.176758 95.196 -62.3656
206.542969 95.373 -60.9545
206.909180 95.556 -59.8438
207.275391 95.736 -58.9513
207.641602 95.911 -58.1904
208.007812 96.087 -57.4934
208.374023 96.271 -56.8278
208.740234 96.474 -56.2026
209.106445 96.703 -55.6666
209.472656 96.960 -55.2931
209.838867 97.241 -55.1573
210.205078 97.535 -55.3120
210.571289 97.830 -55.7738
210.937500 98.115 -56.5222
211.303711 98.382 -57.5128
211.669922 98.627 -58.6935
212.036133 98.849 -60.0175
212.402344 99.049 -61.4515
212.768555 99.230 -62.9764
213.134766 99.394 -64.5848
213.500977 99.541 -66.2777
213.867188 99.672 -68.0613
214.233398 99.786 -69.9425
214.599609 99.879 -71.9250
214.965820 99.948 -74.0039
215.332031 99.990 -76.1641
215.698242 100.002 -78.3815
216.064453 99.983 -80.6281
216.430664 99.931 -82.8757
216.796875 99.849 -85.1006
217.163086 99.738 -87.2828
217.529297 99.599 -89.4066
217.895508 99.434 -91.4612
218.261719 99.245 -93.4415
218.627930 99.033 -95.3508
218.994141 98.799 -97.1979
219.360352 98.539 -98.9915
219.726562 98.251 -100.7329
220.092773 97.928 -102.4109
220.458984 97.566 -104.0011
220.825195 97.160 -105.4694
221.191406 96.704 -106.7727
221.557617 96.191 -107.8533
221.923828 95.615 -108.6252
222.290039 94.970 -108.9622
222.656250 94.256 -108.6895
223.022461 93.479 -107.5905
223.388672 92.662 -105.4225
223.754883 91.843 -101.9431
224.121094 91.085 -96.9569
224.487305 90.476 -90.4204
224.853516 90.125 -82.6219
225.219727 90.116 -74.3146
225.585938 90.450 -66.5281
225.952148 91.040 -60.0765
226.318359 91.761 -55.2391
226.684570 92.511 -51.8542
227.050781 93.235 -49.5854
227.416992 93.911 -48.1161
227.783203 94.538 -47.2207
228.149414 95.117 -46.7544
228.515625 95.649 -46.6111
228.881836 96.137 -46.6896
229.248047 96.587 -46.8883
229.614258 97.011 -47.1265
229.980469 97.425 -47.3743
230.346680 97.847 -47.6715
230.712891 98.286 -48.1182
231.079102 98.742 -48.8391
231.445312 99.204 -49.9401
231.811523 99.653 -51.4778
232.177734 100.071 -53.4529
232.543945 100.440 -55.8206
232.910156 100.750 -58.5079
233.276367 100.990 -61.4315
233.642578 101.157 -64.5076
234.008789 101.250 -67.6599
234.375000 101.268 -70.8214
234.741211 101.212 -73.9333
235.107422 101.082 -76.9423
235.473633 100.877 -79.7959
235.839844 100.596 -82.4379
236.206055 100.239 -84.8030
236.572266 99.803 -86.8132
236.938477 99.287 -88.3761
237.304688 98.692 -89.3829
237.670898 98.020 -89.7092
238.037109 97.271 -89.2067
238.403320 96.447 -87.6802
238.769531 95.551 -84.8359
239.135742 94.600 -80.2029
239.501953 93.658 -73.0791
239.868164 92.897 -62.7188
240.234375 92.641 -49.2059
240.600586 93.198 -34.6760
240.966797 94.516 -22.4036
241.333008 96.233 -14.0763
241.699219 98.027 -9.4337
242.065430 99.733 -7.5607
242.431641 101.288 -7.6211
242.797852 102.681 -8.9982
243.164062 103.918 -11.2567
243.530273 105.016 -14.0908
243.896484 105.992 -17.2894
244.262695 106.867 -20.7136
244.628906 107.658 -24.2802
244.995117 108.379 -27.9474
245.361328 109.043 -31.7012
245.727539 109.656 -35.5438
246.093750 110.224 -39.4855
246.459961 110.749 -43.5388
246.826172 111.230 -47.7145
247.192383 111.665 -52.0156
247.558594 112.048 -56.4335
247.924805 112.376 -60.9423
248.291016 112.644 -65.4983
248.657227 112.849 -70.0433
249.023438 112.991 -74.5112
249.389648 113.075 -78.8362
249.755859 113.105 -82.9613
250.122070 113.091 -86.8442
250.488281 113.040 -90.4594
250.854492 112.963 -93.7963
251.220703 112.866 -96.8553
251.586914 112.759 -99.6448
251.953125 112.646 -102.1782
252.319336 112.535 -104.4744
252.685547 112.431 -106.5574
253.051758 112.338 -108.4573
253.417969 112.260 -110.2069
253.784180 112.198 -111.8392
254.150391 112.153 -113.3844
254.516602 112.125 -114.8685
254.882812 112.113 -116.3140
255.249023 112.117 -117.7406
255.615234 112.135 -119.1665
255.981445 112.165 -120.6063
256.347656 112.205 -122.0709
256.713867 112.253 -123.5659
257.080078 112.306 -125.0924
257.446289 112.362 -126.6492
257.812500 112.421 -128.2341
258.178711 112.481 -129.8448
258.544922 112.541 -131.4788
258.911133 112.601 -133.1334
259.277344 112.661 -134.8070
259.643555 112.722 -136.5007
260.009766 112.786 -138.2212
260.375977 112.852 -139.9823
260.742188 112.920 -141.8024
261.108398 112.989 -143.7013
261.474609 113.055 -145.6954
261.840820 113.115 -147.7938
262.207031 113.163 -149.9961
262.573242 113.196 -152.2922
262.939453 113.210 -154.6633
263.305664 113.202 -157.0833
263.671875 113.169 -159.5200
264.038086 113.112 -161.9376
264.404297 113.032 -164.2991
264.770508 112.930 -166.5704
265.136719 112.813 -168.7245
265.502930 112.684 -170.7454
265.869141 112.549 -172.6300
266.235352 112.414 -174.3884
266.601562 112.282 -176.0397
266.967773 112.156 -177.6085
267.333984 112.037 -179.1182
267.700195 111.924 179.4115
268.066406 111.816 177.9653
268.432617 111.714 176.5306
268.798828 111.615 175.0950
269.165039 111.520 173.6445
269.531250 111.426 172.1656
269.897461 111.331 170.6475
270.263672 111.232 169.0846
270.629883 111.124 167.4794
270.996094 111.006 165.8411
271.362305 110.874 164.1844
271.728516 110.726 162.5277
272.094727 110.560 160.8928
272.460938 110.377 159.3048
272.827148 110.174 157.7928
273.193359 109.954 156.3889
273.559570 109.718 155.1259
273.925781 109.469 154.0352
274.291992 109.213 153.1429
274.658203 108.957 152.4677
275.024414 108.706 152.0161
275.390625 108.471 151.7815
275.756836 108.258 151.7404
276.123047 108.073 151.8536
276.489258 107.923 152.0691
276.855469 107.808 152.3274
277.221680 107.729 152.5684
277.587891 107.683 152.7360
277.954102 107.665 152.7809
278.320312 107.668 152.6635
278.686523 107.685 152.3572
279.052734 107.706 151.8513
279.418945 107.723 151.1542
279.785156 107.727 150.2920
280.151367 107.712 149.3046
280.517578 107.675 148.2397
280.883789 107.615 147.1470
281.250000 107.532 146.0718
281.616211 107.429 145.0536
281.982422 107.310 144.1244
282.348633 107.180 143.3077
282.714844 107.043 142.6180
283.081055 106.905 142.0590
283.447266 106.773 141.6223
283.813477 106.649 141.2896
284.179688 106.537 141.0337
284.545898 106.439 140.8254
284.912109 106.354 140.6388
285.278320 106.280 140.4550
285.644531 106.215 140.2644
286.010742 106.157 140.0651
286.376953 106.106 139.8591
286.743164 106.061 139.6477
287.109375 106.024 139.4292
287.475586 105.995 139.1967
287.841797 105.974 138.9388
288.208008 105.961 138.6412
288.574219 105.956 138.2881
288.940430 105.955 137.8647
289.306641 105.957 137.3605
289.672852 105.958 136.7715
290.039062 105.953 136.1019
290.405273 105.940 135.3651
290.771484 105.915 134.5807
291.137695 105.876 133.7726
291.503906 105.824 132.9672
291.870117 105.758 132.1921
292.236328 105.680 131.4758
292.602539 105.592 130.8463
292.968750 105.498 130.3263
293.334961 105.405 129.9281
293.701172 105.318 129.6497
294.067383 105.243 129.4738
294.433594 105.186 129.3723
294.799805 105.148 129.3118
295.166016 105.131 129.2573
295.532227 105.137 129.1719
295.898438 105.165 129.0142
296.264648 105.213 128.7386
296.630859 105.276 128.2993
296.997070 105.349 127.6583
297.363281 105.421 126.7942
297.729492 105.483 125.7051
298.095703 105.526 124.4093
298.461914 105.540 122.9418
298.828125 105.521 121.3496
299.194336 105.462 119.6888
299.560547 105.362 118.0210
299.926758 105.221 116.4095
