* Measurement data measured by REW V5.20.8
* Source: ASIO hdspfire, Analog 1 (1)
* Format: 4M Log Swept Sine, 1 sweep at -12.0 dBFS with no timing reference
* Dated: 13 juin 2022 13:55:51
* REW Settings:
*  C-weighting compensation: Off
*  Target level: 75.0 dB
* Note: ; 
* Measurement: on_0x1400_4_1 juin 13
* Smoothing: None
* Frequency Step: 0.36621094 Hz
* Start Frequency: 0.36621094 Hz
*
* Freq(Hz) SPL(dB) Phase(degrees)
0.366211 29.348 23.2090
0.732422 31.008 34.7834
1.098633 31.786 39.2993
1.464844 31.298 42.9161
1.831055 29.426 53.2493
2.197266 27.849 84.2758
2.563477 30.956 116.0093
2.929688 34.708 121.8291
3.295898 36.746 115.4406
3.662109 36.884 104.4750
4.028320 34.676 93.4352
4.394531 28.465 95.6893
4.760742 26.541 169.3893
5.126953 32.463 173.1936
5.493164 32.890 144.5972
5.859375 31.210 71.4844
6.225586 38.112 -2.2209
6.591797 43.704 -35.8937
6.958008 46.595 -58.7308
7.324219 47.351 -74.4391
7.690430 46.300 -76.5545
8.056641 46.515 -53.1964
8.422852 51.217 -38.6051
8.789062 55.577 -45.3828
9.155273 58.486 -59.6360
9.521484 60.194 -75.6584
9.887695 60.934 -90.7083
10.253906 60.939 -102.4189
10.620117 60.655 -108.4778
10.986328 60.882 -109.1889
11.352539 62.049 -110.1934
11.718750 63.559 -115.9625
12.084961 64.716 -125.3904
12.451172 65.232 -135.2375
12.817383 65.140 -141.7438
13.183594 64.964 -141.0432
13.549805 65.894 -134.2397
13.916016 68.233 -131.0626
14.282227 70.837 -135.8888
14.648438 72.969 -146.0386
15.014648 74.449 -158.6431
15.380859 75.260 -171.8042
15.747070 75.409 176.0215
16.113281 74.930 166.6975
16.479492 74.026 162.9423
16.845703 73.428 167.0252
17.211914 74.188 174.4420
17.578125 76.001 176.0218
17.944336 77.762 170.3807
18.310547 78.946 160.5209
18.676758 79.421 149.0545
19.042969 79.155 137.9768
19.409180 78.136 129.3881
19.775391 76.451 126.3466
20.141602 74.638 133.0323
20.507812 74.103 148.9763
20.874023 75.352 163.1675
21.240234 77.209 170.7477
21.606445 79.089 174.4242
21.972656 80.987 175.7060
22.338867 82.873 174.5802
22.705078 84.617 171.2334
23.071289 86.115 166.5103
23.437500 87.365 161.4908
23.803711 88.448 157.0144
24.169922 89.515 153.3152
24.536133 90.693 149.8790
24.902344 92.007 145.7916
25.268555 93.380 140.3777
25.634766 94.707 133.4991
26.000977 95.907 125.3951
26.367188 96.936 116.4297
26.733398 97.778 106.9578
27.099609 98.426 97.3070
27.465820 98.884 87.8109
27.832031 99.167 78.8409
28.198242 99.315 70.7930
28.564453 99.406 63.9856
28.930664 99.550 58.4452
29.296875 99.857 53.6945
29.663086 100.367 48.8374
30.029297 101.021 43.0374
30.395508 101.703 35.9498
30.761719 102.307 27.7378
31.127930 102.771 18.8408
31.494141 103.074 9.7616
31.860352 103.235 0.9420
32.226562 103.294 -7.3082
32.592773 103.296 -14.8555
32.958984 103.287 -21.7479
33.325195 103.295 -28.1558
33.691406 103.322 -34.2559
34.057617 103.356 -40.1268
34.423828 103.382 -45.7205
34.790039 103.405 -50.9230
35.156250 103.444 -55.6638
35.522461 103.528 -60.0063
35.888672 103.671 -64.1508
36.254883 103.865 -68.3260
36.621094 104.077 -72.6459
36.987305 104.277 -77.0431
37.353516 104.454 -81.3270
37.719727 104.627 -85.3287
38.085938 104.834 -89.0498
38.452148 105.104 -92.7169
38.818359 105.432 -96.6712
39.184570 105.776 -101.1601
39.550781 106.080 -106.1960
39.916992 106.300 -111.5673
40.283203 106.419 -116.9481
40.649414 106.450 -122.0259
41.015625 106.429 -126.6046
41.381836 106.397 -130.6553
41.748047 106.388 -134.2954
42.114258 106.416 -137.7064
42.480469 106.479 -141.0466
42.846680 106.569 -144.4186
43.212891 106.680 -147.8875
43.579102 106.798 -151.5020
43.945312 106.908 -155.2881
44.311523 106.992 -159.2221
44.677734 107.040 -163.2220
45.043945 107.051 -167.1760
45.410156 107.033 -170.9956
45.776367 106.999 -174.6579
46.142578 106.959 -178.2062
46.508789 106.915 178.2938
46.875000 106.858 174.8070
47.241211 106.783 171.3466
47.607422 106.687 167.9450
47.973633 106.573 164.6104
48.339844 106.441 161.3111
48.706055 106.281 158.0129
49.072266 106.076 154.7411
49.438477 105.812 151.6187
49.804688 105.489 148.8431
50.170898 105.126 146.6048
50.537109 104.761 144.9801
50.903320 104.434 143.8643
51.269531 104.164 143.0074
51.635742 103.941 142.1496
52.001953 103.734 141.1538
52.368164 103.508 140.0489
52.734375 103.239 138.9871
53.100586 102.922 138.1843
53.466797 102.566 137.8724
53.833008 102.204 138.2506
54.199219 101.887 139.3937
54.565430 101.675 141.1396
54.931641 101.601 143.0746
55.297852 101.650 144.7278
55.664062 101.764 145.8536
56.030273 101.885 146.5448
56.396484 101.990 147.0981
56.762695 102.102 147.7656
57.128906 102.263 148.5572
57.495117 102.497 149.2328
57.861328 102.792 149.5014
58.227539 103.105 149.2479
58.593750 103.398 148.5887
58.959961 103.657 147.7507
59.326172 103.896 146.9054
59.692383 104.138 146.0756
60.058594 104.396 145.1646
60.424805 104.664 144.0672
60.791016 104.927 142.7641
61.157227 105.176 141.3223
61.523438 105.409 139.8254
61.889648 105.636 138.3029
62.255859 105.862 136.7176
62.622070 106.084 135.0162
62.988281 106.292 133.1928
63.354492 106.479 131.3080
63.720703 106.647 129.4510
64.086914 106.808 127.6769
64.453125 106.975 125.9683
64.819336 107.154 124.2517
65.185547 107.343 122.4548
65.551758 107.533 120.5557
65.917969 107.716 118.5873
66.284180 107.895 116.5966
66.650391 108.076 114.5959
67.016602 108.267 112.5444
67.382812 108.468 110.3716
67.749023 108.668 108.0245
68.115234 108.858 105.5010
68.481445 109.028 102.8470
68.847656 109.175 100.1245
69.213867 109.305 97.3773
69.580078 109.423 94.6126
69.946289 109.532 91.8088
70.312500 109.629 88.9399
70.678711 109.712 85.9984
71.044922 109.774 83.0011
71.411133 109.816 79.9782
71.777344 109.837 76.9557
72.143555 109.840 73.9438
72.509766 109.826 70.9391
72.875977 109.794 67.9365
73.242188 109.741 64.9442
73.608398 109.665 61.9882
73.974609 109.566 59.1061
74.340820 109.447 56.3324
74.707031 109.315 53.6845
75.073242 109.175 51.1583
75.439453 109.030 48.7355
75.805664 108.881 46.3971
76.171875 108.725 44.1346
76.538086 108.561 41.9528
76.904297 108.389 39.8619
77.270508 108.211 37.8692
77.636719 108.031 35.9738
78.002930 107.849 34.1697
78.369141 107.666 32.4533
78.735352 107.482 30.8301
79.101562 107.295 29.3140
79.467773 107.108 27.9214
79.833984 106.926 26.6625
80.200195 106.751 25.5352
80.566406 106.590 24.5217
80.932617 106.446 23.5909
81.298828 106.323 22.7021
81.665039 106.218 21.8117
82.031250 106.129 20.8820
82.397461 106.049 19.8890
82.763672 105.973 18.8284
83.129883 105.895 17.7150
83.496094 105.811 16.5766
83.862305 105.721 15.4441
84.228516 105.624 14.3424
84.594727 105.525 13.2853
84.960938 105.426 12.2752
85.327148 105.329 11.3082
85.693359 105.233 10.3809
86.059570 105.139 9.4958
86.425781 105.048 8.6620
86.791992 104.961 7.8905
87.158203 104.881 7.1859
87.524414 104.813 6.5398
87.890625 104.759 5.9291
88.256836 104.721 5.3226
88.623047 104.698 4.6906
88.989258 104.685 4.0142
89.355469 104.679 3.2897
89.721680 104.677 2.5258
90.087891 104.678 1.7395
90.454102 104.683 0.9484
90.820312 104.693 0.1634
91.186523 104.713 -0.6184
91.552734 104.745 -1.4169
91.918945 104.790 -2.2640
92.285156 104.844 -3.1891
92.651367 104.903 -4.2045
93.017578 104.964 -5.2991
93.383789 105.027 -6.4500
93.750000 105.094 -7.6438
94.116211 105.170 -8.8979
94.482422 105.258 -10.2614
94.848633 105.353 -11.7945
95.214844 105.444 -13.5348
95.581055 105.518 -15.4736
95.947266 105.564 -17.5547
96.313477 105.577 -19.6944
96.679688 105.560 -21.8115
97.045898 105.521 -23.8524
97.412109 105.470 -25.8010
97.778320 105.413 -27.6723
98.144531 105.355 -29.4939
98.510742 105.295 -31.2885
98.876953 105.232 -33.0643
99.243164 105.167 -34.8175
99.609375 105.100 -36.5438
99.975586 105.036 -38.2504
100.341797 104.977 -39.9630
100.708008 104.923 -41.7224
101.074219 104.870 -43.5710
101.440430 104.811 -45.5334
101.806641 104.735 -47.6024
102.172852 104.632 -49.7357
102.539062 104.500 -51.8660
102.905273 104.338 -53.9199
103.271484 104.152 -55.8383
103.637695 103.950 -57.5893
104.003906 103.742 -59.1702
104.370117 103.534 -60.5977
104.736328 103.330 -61.8954
105.102539 103.134 -63.0854
105.468750 102.946 -64.1871
105.834961 102.768 -65.2215
106.201172 102.602 -66.2137
106.567383 102.445 -67.1893
106.933594 102.296 -68.1663
107.299805 102.151 -69.1497
107.666016 102.008 -70.1326
108.032227 101.865 -71.1043
108.398438 101.727 -72.0613
108.764648 101.590 -73.0114
109.130859 101.455 -73.9671
109.497070 101.315 -74.9307
109.863281 101.168 -75.8795
110.229492 101.010 -76.7640
110.595703 100.844 -77.5255
110.961914 100.680 -78.1250
111.328125 100.531 -78.5697
111.694336 100.405 -78.9160
112.060547 100.305 -79.2433
112.426758 100.226 -79.6135
112.792969 100.159 -80.0453
113.159180 100.099 -80.5203
113.525391 100.047 -81.0126
113.891602 100.004 -81.5154
114.257812 99.973 -82.0450
114.624023 99.951 -82.6219
114.990234 99.936 -83.2474
115.356445 99.927 -83.9005
115.722656 99.927 -84.5600
116.088867 99.943 -85.2329
116.455078 99.982 -85.9669
116.821289 100.042 -86.8320
117.187500 100.116 -87.8854
117.553711 100.195 -89.1447
117.919922 100.270 -90.5884
118.286133 100.338 -92.1815
118.652344 100.400 -93.9034
119.018555 100.455 -95.7624
119.384766 100.505 -97.7863
119.750977 100.541 -99.9985
120.117188 100.554 -102.3933
120.483398 100.535 -104.9272
120.849609 100.478 -107.5281
121.215820 100.385 -110.1185
121.582031 100.264 -112.6415
121.948242 100.121 -115.0778
122.314453 99.964 -117.4449
122.680664 99.795 -119.7763
123.046875 99.609 -122.0919
123.413086 99.403 -124.3774
123.779297 99.173 -126.5869
124.145508 98.924 -128.6655
124.511719 98.665 -130.5830
124.877930 98.406 -132.3529
125.244141 98.154 -134.0269
125.610352 97.910 -135.6667
125.976562 97.669 -137.3147
126.342773 97.426 -138.9850
126.708984 97.177 -140.6760
127.075195 96.919 -142.3895
127.441406 96.647 -144.1327
127.807617 96.352 -145.8999
128.173828 96.024 -147.6462
128.540039 95.655 -149.2754
128.906250 95.246 -150.6548
129.272461 94.806 -151.6532
129.638672 94.357 -152.1855
130.004883 93.923 -152.2429
130.371094 93.524 -151.8887
130.737305 93.171 -151.2214
131.103516 92.864 -150.3257
131.469727 92.603 -149.2357
131.835938 92.389 -147.9406
132.202148 92.235 -146.4240
132.568359 92.161 -144.7301
132.934570 92.187 -143.0132
133.300781 92.321 -141.5255
133.666992 92.546 -140.5276
134.033203 92.826 -140.1785
134.399414 93.122 -140.4850
134.765625 93.403 -141.3352
135.131836 93.659 -142.5760
135.498047 93.890 -144.0823
135.864258 94.102 -145.7871
136.230469 94.301 -147.6707
136.596680 94.487 -149.7273
136.962891 94.661 -151.9404
137.329102 94.824 -154.2838
137.695312 94.981 -156.7427
138.061523 95.136 -159.3325
138.427734 95.290 -162.0936
138.793945 95.439 -165.0648
139.160156 95.573 -168.2518
139.526367 95.684 -171.6165
139.892578 95.771 -175.0925
140.258789 95.836 -178.6193
140.625000 95.886 177.8286
140.991211 95.931 174.2317
141.357422 95.972 170.5431
141.723633 96.004 166.7213
142.089844 96.020 162.7588
142.456055 96.011 158.6902
142.822266 95.972 154.5773
143.188477 95.908 150.4846
143.554688 95.825 146.4539
143.920898 95.731 142.4917
144.287109 95.632 138.5736
144.653320 95.531 134.6610
145.019531 95.422 130.7216
145.385742 95.299 126.7466
145.751953 95.154 122.7604
146.118164 94.980 118.8202
146.484375 94.774 115.0110
146.850586 94.539 111.4319
147.216797 94.286 108.1748
147.583008 94.031 105.2976
147.949219 93.794 102.7983
148.315430 93.592 100.6099
148.681641 93.434 98.6240
149.047852 93.317 96.7393
149.414062 93.233 94.9033
149.780273 93.172 93.1216
150.146484 93.134 91.4294
150.512695 93.124 89.8477
150.878906 93.151 88.3531
151.245117 93.217 86.8845
151.611328 93.321 85.3755
151.977539 93.455 83.7898
152.343750 93.611 82.1289
152.709961 93.787 80.4111
153.076172 93.987 78.6390
153.442383 94.210 76.7834
153.808594 94.456 74.7942
154.174805 94.714 72.6299
154.541016 94.974 70.2856
154.907227 95.227 67.7979
155.273438 95.467 65.2278
155.639648 95.695 62.6342
156.005859 95.917 60.0502
156.372070 96.139 57.4766
156.738281 96.364 54.8915
157.104492 96.591 52.2692
157.470703 96.818 49.5948
157.836914 97.043 46.8676
158.203125 97.265 44.0911
158.569336 97.483 41.2632
158.935547 97.699 38.3707
159.301758 97.908 35.3969
159.667969 98.106 32.3326
160.034180 98.289 29.1870
160.400391 98.451 25.9867
160.766602 98.592 22.7671
161.132812 98.712 19.5596
161.499023 98.814 16.3824
161.865234 98.901 13.2411
162.231445 98.974 10.1335
162.597656 99.032 7.0594
162.963867 99.075 4.0240
163.330078 99.103 1.0371
163.696289 99.116 -1.8909
164.062500 99.116 -4.7499
164.428711 99.102 -7.5293
164.794922 99.074 -10.2141
165.161133 99.035 -12.7832
165.527344 98.987 -15.2131
165.893555 98.935 -17.4863
166.259766 98.886 -19.6003
166.625977 98.846 -21.5708
166.992188 98.820 -23.4269
167.358398 98.811 -25.2023
167.724609 98.819 -26.9258
168.090820 98.845 -28.6204
168.457031 98.892 -30.3088
168.823242 98.960 -32.0229
169.189453 99.051 -33.8094
169.555664 99.163 -35.7247
169.921875 99.289 -37.8212
170.288086 99.422 -40.1322
170.654297 99.551 -42.6628
171.020508 99.668 -45.3937
171.386719 99.768 -48.2935
171.752930 99.848 -51.3341
172.119141 99.909 -54.4991
172.485352 99.948 -57.7842
172.851562 99.962 -61.1879
173.217773 99.948 -64.7007
173.583984 99.901 -68.2986
173.950195 99.817 -71.9441
174.316406 99.696 -75.5925
174.682617 99.537 -79.1995
175.048828 99.345 -82.7251
175.415039 99.125 -86.1368
175.781250 98.881 -89.4108
176.147461 98.623 -92.5367
176.513672 98.360 -95.5265
176.879883 98.099 -98.4186
177.246094 97.846 -101.2753
177.612305 97.602 -104.1688
177.978516 97.363 -107.1631
178.344727 97.124 -110.3018
178.710938 96.878 -113.6086
179.077148 96.623 -117.0984
179.443359 96.355 -120.7883
179.809570 96.073 -124.7050
180.175781 95.777 -128.8843
180.541992 95.465 -133.3698
180.908203 95.138 -138.2134
181.274414 94.796 -143.4821
181.640625 94.442 -149.2627
182.006836 94.077 -155.6613
182.373047 93.706 -162.7938
182.739258 93.335 -170.7725
183.105469 92.978 -179.6903
183.471680 92.657 170.3942
183.837891 92.409 159.4783
184.204102 92.276 147.6459
184.570312 92.296 135.0936
184.936523 92.496 122.1285
185.302734 92.873 109.1147
185.668945 93.399 96.3890
186.035156 94.028 84.1937
186.401367 94.710 72.6573
186.767578 95.402 61.8171
187.133789 96.071 51.6552
187.500000 96.692 42.1301
187.866211 97.252 33.1965
188.232422 97.746 24.8136
188.598633 98.170 16.9462
188.964844 98.529 9.5627
189.331055 98.825 2.6318
189.697266 99.064 -3.8782
190.063477 99.251 -9.9974
190.429688 99.390 -15.7515
190.795898 99.485 -21.1589
191.162109 99.540 -26.2321
191.528320 99.560 -30.9799
191.894531 99.549 -35.4116
192.260742 99.512 -39.5392
192.626953 99.453 -43.3745
192.993164 99.376 -46.9283
193.359375 99.286 -50.2086
193.725586 99.187 -53.2239
194.091797 99.086 -55.9880
194.458008 98.987 -58.5255
194.824219 98.896 -60.8711
195.190430 98.815 -63.0671
195.556641 98.746 -65.1584
195.922852 98.688 -67.1890
196.289062 98.639 -69.2000
196.655273 98.594 -71.2267
197.021484 98.549 -73.2932
197.387695 98.494 -75.4053
197.753906 98.424 -77.5470
198.120117 98.333 -79.6832
198.486328 98.217 -81.7695
198.852539 98.078 -83.7623
199.218750 97.917 -85.6260
199.584961 97.736 -87.3330
199.951172 97.538 -88.8563
200.317383 97.326 -90.1622
200.683594 97.103 -91.2101
201.049805 96.877 -91.9600
201.416016 96.659 -92.3870
201.782227 96.462 -92.4921
202.148438 96.297 -92.3030
202.514648 96.176 -91.8657
202.880859 96.108 -91.2351
203.247070 96.101 -90.4778
203.613281 96.165 -89.6857
203.979492 96.303 -88.9849
204.345703 96.515 -88.5251
204.711914 96.788 -88.4473
205.078125 97.105 -88.8512
205.444336 97.445 -89.7837
205.810547 97.789 -91.2506
206.176758 98.121 -93.2375
206.542969 98.426 -95.7230
206.909180 98.692 -98.6775
207.275391 98.901 -102.0547
207.641602 99.042 -105.7815
208.007812 99.101 -109.7574
208.374023 99.071 -113.8610
208.740234 98.949 -117.9617
209.106445 98.738 -121.9309
209.472656 98.446 -125.6509
209.838867 98.081 -129.0186
210.205078 97.658 -131.9486
210.571289 97.192 -134.3774
210.937500 96.703 -136.2690
211.303711 96.210 -137.6226
211.669922 95.731 -138.4755
212.036133 95.282 -138.8993
212.402344 94.872 -138.9868
212.768555 94.507 -138.8384
213.134766 94.186 -138.5526
213.500977 93.905 -138.2202
213.867188 93.655 -137.9131
214.233398 93.421 -137.6680
214.599609 93.189 -137.4667
214.965820 92.944 -137.2310
215.332031 92.682 -136.8342
215.698242 92.412 -136.1348
216.064453 92.151 -135.0209
216.430664 91.927 -133.4540
216.796875 91.771 -131.4922
217.163086 91.706 -129.2772
217.529297 91.743 -126.9933
217.895508 91.882 -124.8251
218.261719 92.118 -122.9402
218.627930 92.438 -121.4885
218.994141 92.823 -120.5945
219.360352 93.248 -120.3331
219.726562 93.687 -120.7102
220.092773 94.120 -121.6678
220.458984 94.533 -123.1202
220.825195 94.923 -124.9951
221.191406 95.289 -127.2585
221.557617 95.627 -129.9078
221.923828 95.929 -132.9395
222.290039 96.183 -136.3167
222.656250 96.381 -139.9602
223.022461 96.518 -143.7675
223.388672 96.601 -147.6482
223.754883 96.637 -151.5536
224.121094 96.633 -155.4795
224.487305 96.591 -159.4381
224.853516 96.502 -163.4143
225.219727 96.363 -167.3351
225.585938 96.174 -171.0774
225.952148 95.949 -174.5132
226.318359 95.715 -177.5762
226.684570 95.499 179.6903
227.050781 95.323 177.1417
227.416992 95.188 174.6041
227.783203 95.081 171.9651
228.149414 94.985 169.2155
228.515625 94.893 166.4205
228.881836 94.810 163.6514
229.248047 94.746 160.9277
229.614258 94.713 158.2065
229.980469 94.710 155.4225
230.346680 94.732 152.5405
230.712891 94.772 149.5840
231.079102 94.829 146.6160
231.445312 94.912 143.6934
231.811523 95.032 140.8246
232.177734 95.202 137.9584
232.543945 95.425 135.0073
232.910156 95.696 131.8911
233.276367 96.003 128.5673
233.642578 96.334 125.0374
234.008789 96.681 121.3324
234.375000 97.036 117.4945
234.741211 97.396 113.5671
235.107422 97.757 109.5942
235.473633 98.118 105.6237
235.839844 98.478 101.7076
236.206055 98.843 97.8958
236.572266 99.218 94.2223
236.938477 99.613 90.6959
237.304688 100.036 87.2948
237.670898 100.494 83.9714
238.037109 100.988 80.6637
238.403320 101.518 77.3063
238.769531 102.081 73.8370
239.135742 102.671 70.2008
239.501953 103.280 66.3505
239.868164 103.899 62.2507
240.234375 104.517 57.8809
240.600586 105.124 53.2382
240.966797 105.710 48.3363
241.333008 106.266 43.2026
241.699219 106.785 37.8729
242.065430 107.263 32.3871
242.431641 107.695 26.7865
242.797852 108.080 21.1127
243.164062 108.417 15.4065
243.530273 108.706 9.7080
243.896484 108.949 4.0548
244.262695 109.147 -1.5192
244.628906 109.305 -6.9867
244.995117 109.426 -12.3278
245.361328 109.514 -17.5309
245.727539 109.572 -22.5923
246.093750 109.602 -27.5135
246.459961 109.607 -32.2980
246.826172 109.586 -36.9465
247.192383 109.539 -41.4537
247.558594 109.466 -45.8068
247.924805 109.367 -49.9862
248.291016 109.245 -53.9694
248.657227 109.103 -57.7354
249.023438 108.946 -61.2692
249.389648 108.780 -64.5658
249.755859 108.611 -67.6310
250.122070 108.445 -70.4812
250.488281 108.287 -73.1428
250.854492 108.142 -75.6501
251.220703 108.013 -78.0425
251.586914 107.901 -80.3604
251.953125 107.805 -82.6426
252.319336 107.723 -84.9231
252.685547 107.654 -87.2280
253.051758 107.593 -89.5764
253.417969 107.538 -91.9805
253.784180 107.485 -94.4453
254.150391 107.429 -96.9700
254.516602 107.369 -99.5483
254.882812 107.303 -102.1714
255.249023 107.230 -104.8320
255.615234 107.150 -107.5273
255.981445 107.063 -110.2622
256.347656 106.968 -113.0488
256.713867 106.864 -115.9065
257.080078 106.748 -118.8596
257.446289 106.619 -121.9363
257.812500 106.469 -125.1680
258.178711 106.294 -128.5891
258.544922 106.084 -132.2373
258.911133 105.827 -136.1543
259.277344 105.509 -140.3838
259.643555 105.110 -144.9700
260.009766 104.600 -149.9531
260.375977 103.944 -155.3647
260.742188 103.089 -161.2217
261.108398 101.960 -167.5259
261.474609 100.444 -174.2654
261.840820 98.337 178.5693
262.207031 95.216 170.9399
262.573242 89.814 162.4751
262.939453 70.310 137.7388
263.305664 88.010 -28.6807
263.671875 94.480 -37.8352
264.038086 98.021 -46.0815
264.404297 100.376 -54.0459
264.770508 102.061 -61.7979
265.136719 103.303 -69.3271
265.502930 104.224 -76.6104
265.869141 104.899 -83.6282
266.235352 105.377 -90.3730
266.601562 105.694 -96.8486
266.967773 105.872 -103.0657
267.333984 105.927 -109.0364
267.700195 105.869 -114.7673
268.066406 105.702 -120.2566
268.432617 105.429 -125.4927
268.798828 105.046 -130.4565
269.165039 104.551 -135.1187
269.531250 103.932 -139.4290
269.897461 103.173 -143.2971
270.263672 102.253 -146.5630
270.629883 101.146 -148.9521
270.996094 99.823 -150.0046
271.362305 98.267 -148.9536
271.728516 96.508 -144.5242
272.094727 94.742 -134.8420
272.460938 93.540 -118.6953
272.827148 93.661 -99.5029
273.193359 95.001 -84.1528
273.559570 96.776 -74.9390
273.925781 98.505 -70.2981
274.291992 100.046 -68.4658
274.658203 101.391 -68.3098
275.024414 102.567 -69.1721
275.390625 103.604 -70.6772
275.756836 104.532 -72.6152
276.123047 105.372 -74.8738
276.489258 106.139 -77.3945
276.855469 106.843 -80.1477
277.221680 107.491 -83.1152
277.587891 108.086 -86.2839
277.954102 108.628 -89.6382
278.320312 109.118 -93.1587
278.686523 109.553 -96.8179
279.052734 109.934 -100.5803
279.418945 110.259 -104.4053
279.785156 110.531 -108.2488
280.151367 110.752 -112.0686
280.517578 110.926 -115.8296
280.883789 111.058 -119.5042
281.250000 111.151 -123.0732
281.616211 111.212 -126.5251
281.982422 111.243 -129.8538
282.348633 111.249 -133.0571
282.714844 111.233 -136.1367
283.081055 111.197 -139.0955
283.447266 111.143 -141.9385
283.813477 111.072 -144.6697
284.179688 110.984 -147.2896
284.545898 110.880 -149.7913
284.912109 110.758 -152.1616
285.278320 110.621 -154.3811
285.644531 110.471 -156.4280
286.010742 110.313 -158.2852
286.376953 110.152 -159.9448
286.743164 109.994 -161.4111
287.109375 109.845 -162.7021
287.475586 109.710 -163.8467
287.841797 109.591 -164.8826
288.208008 109.490 -165.8494
288.574219 109.404 -166.7834
288.940430 109.331 -167.7114
289.306641 109.267 -168.6470
289.672852 109.209 -169.5908
290.039062 109.155 -170.5354
290.405273 109.105 -171.4731
290.771484 109.058 -172.4016
291.137695 109.016 -173.3264
291.503906 108.979 -174.2588
291.870117 108.946 -175.2124
292.236328 108.915 -176.1973
292.602539 108.885 -177.2185
292.968750 108.852 -178.2764
293.334961 108.814 -179.3682
293.701172 108.770 179.5090
294.067383 108.717 178.3586
294.433594 108.654 177.1836
294.799805 108.576 175.9910
295.166016 108.481 174.7954
295.532227 108.363 173.6223
295.898438 108.219 172.5132
296.264648 108.047 171.5229
296.630859 107.847 170.7183
296.997070 107.624 170.1707
297.363281 107.383 169.9500
297.729492 107.138 170.1169
298.095703 106.903 170.7163
298.461914 106.695 171.7637
298.828125 106.537 173.2329
299.194336 106.449 175.0444
299.560547 106.446 177.0642
299.926758 106.535 179.1233
