* Measurement data measured by REW V5.20.8
* Source: ASIO hdspfire, Analog 1 (1)
* Format: 4M Log Swept Sine, 1 sweep at -12.0 dBFS with no timing reference
* Dated: 13 juin 2022 14:20:43
* REW Settings:
*  C-weighting compensation: Off
*  Target level: 75.0 dB
* Note: ; 
* Measurement: on_0x1400_2_4 juin 13
* Smoothing: None
* Frequency Step: 0.36621094 Hz
* Start Frequency: 0.36621094 Hz
*
* Freq(Hz) SPL(dB) Phase(degrees)
0.366211 23.795 -109.2504
0.732422 28.152 -133.1106
1.098633 28.409 -156.9360
1.464844 24.354 176.2808
1.831055 10.636 28.1773
2.197266 27.934 -37.4398
2.563477 32.960 -65.2224
2.929688 34.747 -92.3226
3.295898 34.173 -120.9306
3.662109 30.598 -154.5895
4.028320 20.774 127.9454
4.394531 28.999 5.9521
4.760742 34.280 -34.5303
5.126953 35.795 -70.1598
5.493164 34.439 -110.6341
5.859375 30.244 178.8997
6.225586 35.052 78.2427
6.591797 41.657 31.1561
6.958008 45.761 -1.1003
7.324219 48.336 -27.5164
7.690430 49.850 -49.0858
8.056641 50.628 -64.8960
8.422852 51.140 -73.6650
8.789062 52.087 -76.4863
9.155273 53.776 -78.3612
9.521484 55.741 -82.8020
9.887695 57.508 -88.9598
10.253906 59.007 -94.7021
10.620117 60.452 -98.9430
10.986328 62.077 -102.4956
11.352539 63.878 -107.1758
11.718750 65.622 -113.8511
12.084961 67.083 -121.9209
12.451172 68.165 -130.0292
12.817383 68.914 -136.6613
13.183594 69.534 -140.6375
13.549805 70.358 -142.0201
13.916016 71.622 -142.7677
14.282227 73.231 -145.3053
14.648438 74.892 -150.5035
15.014648 76.377 -157.8033
15.380859 77.588 -166.2296
15.747070 78.510 -174.8905
16.113281 79.177 176.9363
16.479492 79.658 169.8087
16.845703 80.054 164.0586
17.211914 80.491 159.6243
17.578125 81.069 155.9189
17.944336 81.806 152.0306
18.310547 82.619 147.2535
18.676758 83.384 141.4678
19.042969 84.006 135.0953
19.409180 84.451 128.8438
19.775391 84.763 123.4194
20.141602 85.057 119.1954
20.507812 85.468 115.8783
20.874023 86.058 112.5358
21.240234 86.765 108.2247
21.606445 87.447 102.6263
21.972656 87.984 96.0858
22.338867 88.320 89.2866
22.705078 88.468 82.9395
23.071289 88.500 77.5483
23.437500 88.521 73.2186
23.803711 88.600 69.6056
24.169922 88.759 66.1516
24.536133 88.957 62.4801
24.902344 89.138 58.5865
25.268555 89.277 54.7051
25.634766 89.390 51.0448
26.000977 89.508 47.6095
26.367188 89.646 44.2153
26.733398 89.787 40.6796
27.099609 89.892 37.0055
27.465820 89.935 33.4081
27.832031 89.921 30.1947
28.198242 89.884 27.6002
28.564453 89.872 25.6843
28.930664 89.926 24.3481
29.296875 90.073 23.4363
29.663086 90.335 22.7936
30.029297 90.735 22.2046
30.395508 91.284 21.3229
30.761719 91.959 19.7495
31.127930 92.703 17.2318
31.494141 93.450 13.7842
31.860352 94.155 9.6373
32.226562 94.800 5.0951
32.592773 95.389 0.4060
32.958984 95.937 -4.2983
33.325195 96.463 -8.9907
33.691406 96.972 -13.6843
34.057617 97.459 -18.3665
34.423828 97.923 -22.9725
34.790039 98.367 -27.4126
35.156250 98.806 -31.6262
35.522461 99.259 -35.6292
35.888672 99.740 -39.5194
36.254883 100.249 -43.4363
36.621094 100.774 -47.4939
36.987305 101.296 -51.7322
37.353516 101.796 -56.1080
37.719727 102.268 -60.5264
38.085938 102.712 -64.8893
38.452148 103.140 -69.1428
38.818359 103.565 -73.3020
39.184570 103.995 -77.4384
39.550781 104.426 -81.6372
39.916992 104.849 -85.9463
40.283203 105.250 -90.3501
40.649414 105.621 -94.7808
41.015625 105.964 -99.1567
41.381836 106.287 -103.4229
41.748047 106.598 -107.5697
42.114258 106.907 -111.6226
42.480469 107.214 -115.6113
42.846680 107.519 -119.5479
43.212891 107.828 -123.4276
43.579102 108.142 -127.2531
43.945312 108.466 -131.0542
44.311523 108.799 -134.8861
44.677734 109.139 -138.8004
45.043945 109.480 -142.8141
45.410156 109.814 -146.9036
45.776367 110.142 -151.0297
46.142578 110.471 -155.1780
46.508789 110.807 -159.3838
46.875000 111.152 -163.7209
47.241211 111.497 -168.2607
47.607422 111.830 -173.0297
47.973633 112.138 -177.9965
48.339844 112.415 176.9049
48.706055 112.663 171.7343
49.072266 112.888 166.5105
49.438477 113.097 161.2032
49.804688 113.287 155.7539
50.170898 113.450 150.1144
50.537109 113.575 144.2770
50.903320 113.648 138.2815
51.269531 113.662 132.1991
51.635742 113.615 126.1069
52.001953 113.511 120.0654
52.368164 113.355 114.1095
52.734375 113.150 108.2539
53.100586 112.897 102.5066
53.466797 112.595 96.8840
53.833008 112.245 91.4163
54.199219 111.848 86.1439
54.565430 111.406 81.1080
54.931641 110.926 76.3428
55.297852 110.412 71.8734
55.664062 109.870 67.7211
56.030273 109.308 63.9073
56.396484 108.733 60.4525
56.762695 108.158 57.3627
57.128906 107.594 54.6111
57.495117 107.054 52.1259
57.861328 106.542 49.7972
58.227539 106.058 47.5076
58.593750 105.586 45.1709
58.959961 105.106 42.7614
59.326172 104.600 40.3188
59.692383 104.055 37.9337
60.058594 103.468 35.7200
60.424805 102.844 33.7882
60.791016 102.190 32.2260
61.157227 101.520 31.0898
61.523438 100.844 30.4105
61.889648 100.171 30.2074
62.255859 99.510 30.5022
62.622070 98.876 31.3214
62.988281 98.287 32.6808
63.354492 97.769 34.5521
63.720703 97.350 36.8270
64.086914 97.049 39.2993
64.453125 96.871 41.6940
64.819336 96.798 43.7418
65.185547 96.798 45.2666
65.551758 96.831 46.2316
65.917969 96.863 46.7244
66.284180 96.877 46.8960
66.650391 96.872 46.8861
67.016602 96.854 46.7712
67.382812 96.830 46.5587
67.749023 96.797 46.2284
68.115234 96.747 45.7935
68.481445 96.670 45.3320
68.847656 96.569 44.9656
69.213867 96.458 44.7955
69.580078 96.359 44.8380
69.946289 96.292 45.0051
70.312500 96.263 45.1520
70.678711 96.262 45.1566
71.044922 96.273 44.9703
71.411133 96.285 44.6080
71.777344 96.289 44.1062
72.143555 96.282 43.4919
72.509766 96.261 42.7866
72.875977 96.220 42.0280
73.242188 96.157 41.2770
73.608398 96.078 40.5956
73.974609 95.992 40.0078
74.340820 95.908 39.4810
74.707031 95.826 38.9528
75.073242 95.738 38.3916
75.439453 95.630 37.8400
75.805664 95.497 37.4088
76.171875 95.349 37.2197
76.538086 95.203 37.3385
76.904297 95.082 37.7407
77.270508 95.002 38.3362
77.636719 94.970 39.0209
78.002930 94.988 39.7048
78.369141 95.057 40.2944
78.735352 95.173 40.6680
79.101562 95.321 40.6978
79.467773 95.473 40.3182
79.833984 95.598 39.5840
80.200195 95.675 38.6639
80.566406 95.702 37.7698
80.932617 95.699 37.0588
81.298828 95.693 36.5642
81.665039 95.702 36.1996
82.031250 95.727 35.8463
82.397461 95.756 35.4563
82.763672 95.778 35.0886
83.129883 95.797 34.8566
83.496094 95.832 34.8245
83.862305 95.911 34.9331
84.228516 96.045 35.0066
84.594727 96.233 34.8406
84.960938 96.451 34.2980
85.327148 96.674 33.3479
85.693359 96.881 32.0400
86.059570 97.058 30.4620
86.425781 97.198 28.7118
86.791992 97.302 26.8865
87.158203 97.376 25.0731
87.524414 97.431 23.3279
87.890625 97.481 21.6505
88.256836 97.540 19.9757
88.623047 97.609 18.1987
88.989258 97.680 16.2255
89.355469 97.737 14.0159
89.721680 97.766 11.5934
90.087891 97.755 9.0228
90.454102 97.702 6.3766
90.820312 97.606 3.7126
91.186523 97.470 1.0719
91.552734 97.295 -1.5117
91.918945 97.083 -4.0049
92.285156 96.836 -6.3796
92.651367 96.561 -8.6248
93.017578 96.261 -10.7498
93.383789 95.936 -12.7720
93.750000 95.581 -14.6940
94.116211 95.194 -16.4893
94.482422 94.773 -18.1123
94.848633 94.321 -19.5270
95.214844 93.842 -20.7312
95.581055 93.334 -21.7527
95.947266 92.788 -22.6088
96.313477 92.187 -23.2537
96.679688 91.511 -23.5488
97.045898 90.755 -23.2708
97.412109 89.923 -22.1439
97.778320 89.037 -19.8690
98.144531 88.136 -16.1283
98.510742 87.288 -10.6003
98.876953 86.611 -3.0992
99.243164 86.268 6.0543
99.609375 86.387 15.7083
99.975586 86.945 24.3002
100.341797 87.779 30.8351
100.708008 88.708 35.2365
101.074219 89.622 37.9492
101.440430 90.473 39.4940
101.806641 91.258 40.2589
102.172852 91.989 40.4623
102.539062 92.677 40.1949
102.905273 93.326 39.4880
103.271484 93.930 38.3716
103.637695 94.484 36.9030
104.003906 94.984 35.1622
104.370117 95.433 33.2302
104.736328 95.835 31.1647
105.102539 96.197 28.9917
105.468750 96.520 26.7148
105.834961 96.805 24.3369
106.201172 97.046 21.8793
106.567383 97.242 19.3887
106.933594 97.392 16.9290
107.299805 97.503 14.5613
107.666016 97.582 12.3251
108.032227 97.640 10.2280
108.398438 97.685 8.2485
108.764648 97.721 6.3505
109.130859 97.747 4.5018
109.497070 97.760 2.6892
109.863281 97.756 0.9229
110.229492 97.736 -0.7706
110.595703 97.700 -2.3596
110.961914 97.652 -3.8230
111.328125 97.599 -5.1589
111.694336 97.546 -6.3840
112.060547 97.495 -7.5231
112.426758 97.446 -8.5958
112.792969 97.395 -9.6079
113.159180 97.343 -10.5511
113.525391 97.290 -11.4132
113.891602 97.239 -12.1854
114.257812 97.190 -12.8674
114.624023 97.146 -13.4644
114.990234 97.108 -13.9808
115.356445 97.078 -14.4191
115.722656 97.058 -14.7816
116.088867 97.050 -15.0780
116.455078 97.057 -15.3290
116.821289 97.080 -15.5649
117.187500 97.118 -15.8186
117.553711 97.168 -16.1140
117.919922 97.224 -16.4580
118.286133 97.283 -16.8378
118.652344 97.342 -17.2267
119.018555 97.403 -17.5977
119.384766 97.471 -17.9387
119.750977 97.552 -18.2633
120.117188 97.648 -18.6062
120.483398 97.758 -19.0089
120.849609 97.877 -19.4999
121.215820 98.001 -20.0836
121.582031 98.126 -20.7438
121.948242 98.249 -21.4570
122.314453 98.371 -22.2065
122.680664 98.493 -22.9869
123.046875 98.616 -23.8003
123.413086 98.738 -24.6460
123.779297 98.859 -25.5168
124.145508 98.980 -26.4020
124.511719 99.102 -27.2938
124.877930 99.227 -28.1940
125.244141 99.358 -29.1121
125.610352 99.493 -30.0594
125.976562 99.635 -31.0453
126.342773 99.782 -32.0779
126.708984 99.935 -33.1702
127.075195 100.096 -34.3446
127.441406 100.261 -35.6283
127.807617 100.425 -37.0417
128.173828 100.583 -38.5857
128.540039 100.729 -40.2374
128.906250 100.861 -41.9614
129.272461 100.981 -43.7262
129.638672 101.091 -45.5208
130.004883 101.195 -47.3574
130.371094 101.292 -49.2601
130.737305 101.377 -51.2450
131.103516 101.446 -53.3063
131.469727 101.493 -55.4152
131.835938 101.517 -57.5321
132.202148 101.520 -59.6233
132.568359 101.504 -61.6707
132.934570 101.470 -63.6680
133.300781 101.419 -65.6099
133.666992 101.349 -67.4788
134.033203 101.259 -69.2400
134.399414 101.152 -70.8496
134.765625 101.034 -72.2676
135.131836 100.914 -73.4724
135.498047 100.800 -74.4688
135.864258 100.702 -75.2837
136.230469 100.624 -75.9580
136.596680 100.569 -76.5347
136.962891 100.538 -77.0498
137.329102 100.530 -77.5312
137.695312 100.545 -78.0034
138.061523 100.584 -78.4907
138.427734 100.645 -79.0234
138.793945 100.726 -79.6299
139.160156 100.823 -80.3333
139.526367 100.931 -81.1382
139.892578 101.045 -82.0332
140.258789 101.164 -82.9983
140.625000 101.289 -84.0190
140.991211 101.423 -85.0967
141.357422 101.565 -86.2505
141.723633 101.716 -87.5037
142.089844 101.871 -88.8726
142.456055 102.026 -90.3550
142.822266 102.177 -91.9355
143.188477 102.325 -93.5967
143.554688 102.471 -95.3296
143.920898 102.618 -97.1396
144.287109 102.763 -99.0415
144.653320 102.907 -101.0479
145.019531 103.045 -103.1626
145.385742 103.175 -105.3779
145.751953 103.296 -107.6797
146.118164 103.407 -110.0549
146.484375 103.508 -112.4968
146.850586 103.600 -115.0027
147.216797 103.680 -117.5684
147.583008 103.749 -120.1838
147.949219 103.804 -122.8315
148.315430 103.848 -125.4927
148.681641 103.883 -128.1558
149.047852 103.912 -130.8237
149.414062 103.937 -133.5115
149.780273 103.958 -136.2395
150.146484 103.972 -139.0215
150.512695 103.976 -141.8572
150.878906 103.968 -144.7314
151.245117 103.947 -147.6230
151.611328 103.914 -150.5146
151.977539 103.872 -153.3984
152.343750 103.822 -156.2754
152.709961 103.765 -159.1494
153.076172 103.702 -162.0215
153.442383 103.632 -164.8882
153.808594 103.557 -167.7451
154.174805 103.479 -170.5942
154.541016 103.401 -173.4487
154.907227 103.321 -176.3279
155.273438 103.239 -179.2500
155.639648 103.152 177.7776
156.005859 103.057 174.7627
156.372070 102.952 171.7246
156.738281 102.838 168.6846
157.104492 102.719 165.6536
157.470703 102.598 162.6270
157.836914 102.479 159.5837
158.203125 102.361 156.4946
158.569336 102.243 153.3335
158.935547 102.121 150.0845
159.301758 101.991 146.7461
159.667969 101.852 143.3235
160.034180 101.701 139.8223
160.400391 101.539 136.2422
160.766602 101.363 132.5767
161.132812 101.172 128.8179
161.499023 100.960 124.9641
161.865234 100.723 121.0269
162.231445 100.458 117.0320
162.597656 100.160 113.0161
162.963867 99.832 109.0198
163.330078 99.473 105.0815
163.696289 99.089 101.2302
164.062500 98.684 97.4827
164.428711 98.264 93.8408
164.794922 97.834 90.2937
165.161133 97.396 86.8198
165.527344 96.952 83.3931
165.893555 96.502 79.9897
166.259766 96.043 76.5916
166.625977 95.575 73.1882
166.992188 95.095 69.7690
167.358398 94.602 66.3208
167.724609 94.094 62.8220
168.090820 93.567 59.2512
168.457031 93.013 55.5940
168.823242 92.426 51.8542
169.189453 91.797 48.0527
169.555664 91.122 44.2214
169.921875 90.400 40.3879
170.288086 89.632 36.5593
170.654297 88.817 32.7112
171.020508 87.955 28.7817
171.386719 87.038 24.6763
171.752930 86.054 20.2695
172.119141 84.983 15.4092
172.485352 83.796 9.9014
172.851562 82.460 3.4734
173.217773 80.944 -4.3115
173.583984 79.227 -14.2217
173.950195 77.354 -27.6113
174.316406 75.580 -46.4531
174.682617 74.591 -71.4595
175.048828 75.081 -97.8555
175.415039 76.695 -119.0317
175.781250 78.631 -134.0298
176.147461 80.495 -144.8169
176.513672 82.188 -153.0945
176.879883 83.712 -159.8933
177.246094 85.089 -165.8059
177.612305 86.342 -171.1814
177.978516 87.491 -176.2280
178.344727 88.549 178.9292
178.710938 89.529 174.2156
179.077148 90.440 169.5854
179.443359 91.290 165.0068
179.809570 92.085 160.4590
180.175781 92.830 155.9275
180.541992 93.530 151.4084
180.908203 94.186 146.9041
181.274414 94.802 142.4207
181.640625 95.383 137.9639
182.006836 95.930 133.5366
182.373047 96.447 129.1431
182.739258 96.935 124.7896
183.105469 97.397 120.4880
183.471680 97.836 116.2529
183.837891 98.257 112.0969
184.204102 98.666 108.0215
184.570312 99.068 104.0146
184.936523 99.470 100.0457
185.302734 99.876 96.0691
185.668945 100.285 92.0315
186.035156 100.695 87.8777
186.401367 101.101 83.5640
186.767578 101.492 79.0637
187.133789 101.859 74.3767
187.500000 102.193 69.5283
187.866211 102.485 64.5676
188.232422 102.731 59.5569
188.598633 102.932 54.5620
188.964844 103.090 49.6428
189.331055 103.210 44.8442
189.697266 103.298 40.1948
190.063477 103.362 35.7063
190.429688 103.406 31.3801
190.795898 103.434 27.2102
191.162109 103.451 23.1885
191.528320 103.459 19.3047
191.894531 103.461 15.5471
192.260742 103.457 11.9031
192.626953 103.449 8.3604
192.993164 103.437 4.9092
193.359375 103.421 1.5442
193.725586 103.402 -1.7366
194.091797 103.380 -4.9336
194.458008 103.356 -8.0483
194.824219 103.333 -11.0859
195.190430 103.310 -14.0557
195.556641 103.291 -16.9685
195.922852 103.274 -19.8391
196.289062 103.260 -22.6819
196.655273 103.250 -25.5149
197.021484 103.242 -28.3550
197.387695 103.234 -31.2180
197.753906 103.223 -34.1143
198.120117 103.205 -37.0437
198.486328 103.177 -39.9993
198.852539 103.137 -42.9666
199.218750 103.084 -45.9304
199.584961 103.017 -48.8770
199.951172 102.937 -51.7959
200.317383 102.844 -54.6772
200.683594 102.737 -57.5115
201.049805 102.617 -60.2869
201.416016 102.483 -62.9888
201.782227 102.338 -65.6042
202.148438 102.184 -68.1221
202.514648 102.022 -70.5356
202.880859 101.857 -72.8440
203.247070 101.691 -75.0530
203.613281 101.526 -77.1731
203.979492 101.364 -79.2222
204.345703 101.206 -81.2207
204.711914 101.051 -83.1890
205.078125 100.899 -85.1453
205.444336 100.745 -87.1030
205.810547 100.589 -89.0718
206.176758 100.427 -91.0562
206.542969 100.253 -93.0557
206.909180 100.065 -95.0593
207.275391 99.857 -97.0454
207.641602 99.628 -98.9780
208.007812 99.375 -100.8105
208.374023 99.101 -102.4927
208.740234 98.810 -103.9792
209.106445 98.509 -105.2400
209.472656 98.207 -106.2639
209.838867 97.911 -107.0613
210.205078 97.628 -107.6589
210.571289 97.361 -108.0925
210.937500 97.110 -108.3975
211.303711 96.875 -108.5981
211.669922 96.654 -108.7065
212.036133 96.444 -108.7195
212.402344 96.245 -108.6245
212.768555 96.057 -108.4033
213.134766 95.884 -108.0381
213.500977 95.729 -107.5122
213.867188 95.599 -106.8157
214.233398 95.503 -105.9517
214.599609 95.451 -104.9456
214.965820 95.454 -103.8569
215.332031 95.518 -102.7783
215.698242 95.646 -101.8250
216.064453 95.832 -101.1091
216.430664 96.063 -100.7200
216.796875 96.327 -100.7114
217.163086 96.609 -101.1055
217.529297 96.898 -101.8999
217.895508 97.181 -103.0779
218.261719 97.450 -104.6140
218.627930 97.698 -106.4773
218.994141 97.917 -108.6338
219.360352 98.105 -111.0476
219.726562 98.257 -113.6848
220.092773 98.370 -116.5164
220.458984 98.442 -119.5151
220.825195 98.469 -122.6572
221.191406 98.450 -125.9172
221.557617 98.380 -129.2688
221.923828 98.256 -132.6833
222.290039 98.076 -136.1350
222.656250 97.834 -139.5972
223.022461 97.524 -143.0408
223.388672 97.136 -146.4224
223.754883 96.657 -149.6680
224.121094 96.074 -152.6589
224.487305 95.373 -155.2148
224.853516 94.544 -157.0820
225.219727 93.585 -157.9104
225.585938 92.505 -157.2161
225.952148 91.352 -154.3315
226.318359 90.249 -148.4521
226.684570 89.463 -139.1301
227.050781 89.356 -127.5225
227.416992 90.066 -116.7834
227.783203 91.317 -109.5986
228.149414 92.722 -106.3911
228.515625 94.039 -106.2878
228.881836 95.173 -108.2651
229.248047 96.104 -111.5183
229.614258 96.846 -115.4827
229.980469 97.428 -119.7849
230.346680 97.881 -124.1987
230.712891 98.235 -128.6099
231.079102 98.514 -132.9788
231.445312 98.735 -137.3081
231.811523 98.906 -141.6111
232.177734 99.035 -145.8970
232.543945 99.126 -150.1648
232.910156 99.183 -154.4111
233.276367 99.210 -158.6360
233.642578 99.212 -162.8447
234.008789 99.190 -167.0474
234.375000 99.147 -171.2527
234.741211 99.083 -175.4668
235.107422 98.998 -179.6907
235.473633 98.893 176.0774
235.839844 98.765 171.8457
236.206055 98.615 167.6294
236.572266 98.442 163.4575
236.938477 98.245 159.3757
237.304688 98.030 155.4412
237.670898 97.803 151.7168
238.037109 97.576 148.2563
238.403320 97.365 145.0923
238.769531 97.186 142.2263
239.135742 97.057 139.6265
239.501953 96.994 137.2307
239.868164 97.009 134.9512
240.234375 97.110 132.6816
240.600586 97.299 130.3035
240.966797 97.574 127.6990
241.333008 97.924 124.7661
241.699219 98.335 121.4373
242.065430 98.789 117.6870
242.431641 99.270 113.5312
242.797852 99.765 109.0159
243.164062 100.265 104.2002
243.530273 100.765 99.1458
243.896484 101.264 93.9053
244.262695 101.759 88.5215
244.628906 102.250 83.0247
244.995117 102.738 77.4353
245.361328 103.223 71.7634
245.727539 103.702 66.0105
246.093750 104.173 60.1711
246.459961 104.633 54.2380
246.826172 105.075 48.2070
247.192383 105.492 42.0835
247.558594 105.877 35.8872
247.924805 106.223 29.6519
248.291016 106.524 23.4246
248.657227 106.779 17.2581
249.023438 106.985 11.2073
249.389648 107.147 5.3223
249.755859 107.269 -0.3572
250.122070 107.355 -5.8022
250.488281 107.412 -10.9976
250.854492 107.448 -15.9375
251.220703 107.466 -20.6267
251.586914 107.473 -25.0740
251.953125 107.474 -29.2935
252.319336 107.471 -33.3010
252.685547 107.468 -37.1145
253.051758 107.468 -40.7534
253.417969 107.472 -44.2371
253.784180 107.482 -47.5854
254.150391 107.498 -50.8159
254.516602 107.520 -53.9468
254.882812 107.548 -56.9941
255.249023 107.583 -59.9758
255.615234 107.622 -62.9089
255.981445 107.664 -65.8091
256.347656 107.707 -68.6904
256.713867 107.749 -71.5630
257.080078 107.786 -74.4346
257.446289 107.815 -77.3088
257.812500 107.833 -80.1868
258.178711 107.836 -83.0627
258.544922 107.820 -85.9241
258.911133 107.781 -88.7463
259.277344 107.717 -91.4932
259.643555 107.625 -94.1182
260.009766 107.509 -96.5657
260.375977 107.373 -98.7781
260.742188 107.225 -100.7007
261.108398 107.076 -102.2935
261.474609 106.942 -103.5439
261.840820 106.841 -104.4807
262.207031 106.789 -105.1831
262.573242 106.797 -105.7742
262.939453 106.866 -106.4006
263.305664 106.989 -107.1975
263.671875 107.150 -108.2639
264.038086 107.334 -109.6470
264.404297 107.521 -111.3486
264.770508 107.699 -113.3369
265.136719 107.858 -115.5605
265.502930 107.990 -117.9624
265.869141 108.092 -120.4846
266.235352 108.163 -123.0750
266.601562 108.203 -125.6873
266.967773 108.216 -128.2832
267.333984 108.202 -130.8318
267.700195 108.167 -133.3086
268.066406 108.113 -135.6953
268.432617 108.044 -137.9797
268.798828 107.965 -140.1565
269.165039 107.879 -142.2273
269.531250 107.792 -144.2026
269.897461 107.706 -146.0974
270.263672 107.622 -147.9329
270.629883 107.544 -149.7332
270.996094 107.470 -151.5247
271.362305 107.400 -153.3347
271.728516 107.330 -155.1860
272.094727 107.256 -157.0969
272.460938 107.174 -159.0737
272.827148 107.078 -161.1130
273.193359 106.963 -163.1990
273.559570 106.823 -165.3071
273.925781 106.655 -167.4031
274.291992 106.456 -169.4434
274.658203 106.224 -171.3760
275.024414 105.960 -173.1411
275.390625 105.670 -174.6782
275.756836 105.360 -175.9338
276.123047 105.042 -176.8748
276.489258 104.728 -177.4951
276.855469 104.430 -177.8237
277.221680 104.159 -177.9180
277.587891 103.918 -177.8521
277.954102 103.708 -177.7002
278.320312 103.521 -177.5166
278.686523 103.352 -177.3289
279.052734 103.193 -177.1316
279.418945 103.038 -176.8979
279.785156 102.887 -176.5879
280.151367 102.742 -176.1638
280.517578 102.606 -175.5972
280.883789 102.487 -174.8704
281.250000 102.392 -173.9800
281.616211 102.329 -172.9358
281.982422 102.308 -171.7705
282.348633 102.337 -170.5444
282.714844 102.422 -169.3472
283.081055 102.562 -168.2830
283.447266 102.750 -167.4495
283.813477 102.976 -166.9194
284.179688 103.225 -166.7334
284.545898 103.486 -166.9053
284.912109 103.746 -167.4294
285.278320 103.994 -168.2883
285.644531 104.220 -169.4482
286.010742 104.416 -170.8613
286.376953 104.574 -172.4663
286.743164 104.693 -174.1956
287.109375 104.773 -175.9871
287.475586 104.817 -177.7913
287.841797 104.829 -179.5781
288.208008 104.812 178.6672
288.574219 104.768 176.9495
288.940430 104.698 175.2710
289.306641 104.601 173.6367
289.672852 104.474 172.0569
290.039062 104.314 170.5493
290.405273 104.117 169.1436
290.771484 103.878 167.8865
291.137695 103.593 166.8467
291.503906 103.259 166.1213
291.870117 102.878 165.8367
292.236328 102.457 166.1455
292.602539 102.013 167.2170
292.968750 101.578 169.2129
293.334961 101.196 172.2405
293.701172 100.930 176.2773
294.067383 100.844 -178.9021
294.433594 100.983 -173.7441
294.799805 101.356 -168.8135
295.166016 101.930 -164.6172
295.532227 102.647 -161.4697
295.898438 103.445 -159.4778
296.264648 104.271 -158.5969
296.630859 105.088 -158.7063
296.997070 105.870 -159.6584
297.363281 106.604 -161.3062
297.729492 107.279 -163.5176
298.095703 107.893 -166.1792
298.461914 108.445 -169.1992
298.828125 108.935 -172.5034
299.194336 109.367 -176.0364
299.560547 109.742 -179.7544
299.926758 110.062 176.3767
