* Measurement data measured by REW V5.20.8
* Source: ASIO hdspfire, Analog 1 (1)
* Format: 4M Log Swept Sine, 1 sweep at -12.0 dBFS with no timing reference
* Dated: 13 juin 2022 14:11:59
* REW Settings:
*  C-weighting compensation: Off
*  Target level: 75.0 dB
* Note: ; 
* Measurement: on_0x1400_1_3 juin 13
* Smoothing: None
* Frequency Step: 0.36621094 Hz
* Start Frequency: 0.36621094 Hz
*
* Freq(Hz) SPL(dB) Phase(degrees)
0.366211 12.033 82.6097
0.732422 16.298 69.5457
1.098633 16.816 63.0777
1.464844 15.051 67.1593
1.831055 12.255 93.5337
2.197266 13.686 142.7343
2.563477 19.068 167.2351
2.929688 23.464 170.3199
3.295898 26.188 164.8732
3.662109 27.288 157.1381
4.028320 27.005 152.6296
4.394531 26.427 156.5920
4.760742 27.507 160.1818
5.126953 29.538 145.5918
5.493164 31.728 111.0956
5.859375 35.135 67.7678
6.225586 39.277 30.6984
6.591797 42.844 2.2333
6.958008 45.459 -20.0453
7.324219 47.222 -37.0599
7.690430 48.452 -48.6197
8.056641 49.662 -55.1903
8.422852 51.272 -59.8110
8.789062 53.153 -66.1882
9.155273 54.858 -75.0954
9.521484 56.102 -84.7742
9.887695 56.881 -92.5886
10.253906 57.532 -96.1571
10.620117 58.704 -95.8570
10.986328 60.696 -96.4548
11.352539 62.992 -101.5979
11.718750 65.011 -110.5951
12.084961 66.497 -121.1790
12.451172 67.413 -131.1105
12.817383 67.877 -138.2534
13.183594 68.232 -140.8770
13.549805 69.053 -139.4921
13.916016 70.649 -138.1983
14.282227 72.659 -140.6457
14.648438 74.583 -146.9553
15.014648 76.175 -155.6714
15.380859 77.374 -165.4184
15.747070 78.197 -175.1694
16.113281 78.691 175.8850
16.479492 78.938 168.4507
16.845703 79.072 163.0746
17.211914 79.287 159.7988
17.578125 79.768 157.6998
17.944336 80.551 155.1168
18.310547 81.477 150.7974
18.676758 82.325 144.6183
19.042969 82.940 137.3025
19.409180 83.261 129.9180
19.775391 83.323 123.5649
20.141602 83.262 119.0673
20.507812 83.282 116.4654
20.874023 83.537 114.6907
21.240234 83.991 112.2797
21.606445 84.458 108.6089
21.972656 84.769 104.1707
22.338867 84.868 100.0115
22.705078 84.825 97.1044
23.071289 84.798 95.7981
23.437500 84.933 95.5247
23.803711 85.226 95.2962
24.169922 85.578 94.6815
24.536133 85.907 94.0986
24.902344 86.249 94.2282
25.268555 86.738 95.1869
25.634766 87.479 96.1730
26.000977 88.438 96.0990
26.367188 89.480 94.4995
26.733398 90.493 91.6221
27.099609 91.439 87.9402
27.465820 92.329 83.7625
27.832031 93.181 79.1507
28.198242 93.993 74.0598
28.564453 94.743 68.5194
28.930664 95.416 62.7011
29.296875 96.014 56.8452
29.663086 96.567 51.1214
30.029297 97.112 45.5231
30.395508 97.671 39.8753
30.761719 98.237 33.9650
31.127930 98.783 27.6969
31.494141 99.275 21.1547
31.860352 99.702 14.5463
32.226562 100.073 8.0907
32.592773 100.411 1.9143
32.958984 100.740 -3.9944
33.325195 101.079 -9.7483
33.691406 101.426 -15.4670
34.057617 101.765 -21.1938
34.423828 102.083 -26.8780
34.790039 102.377 -32.4183
35.156250 102.654 -37.7289
35.522461 102.928 -42.7830
35.888672 103.212 -47.6189
36.254883 103.511 -52.3126
36.621094 103.825 -56.9437
36.987305 104.147 -61.5737
37.353516 104.466 -66.2365
37.719727 104.771 -70.9321
38.085938 105.053 -75.6201
38.452148 105.306 -80.2205
38.818359 105.532 -84.6343
39.184570 105.746 -88.7864
39.550781 105.968 -92.6718
39.916992 106.217 -96.3778
40.283203 106.500 -100.0555
40.649414 106.807 -103.8506
41.015625 107.118 -107.8361
41.381836 107.414 -111.9905
41.748047 107.682 -116.2233
42.114258 107.920 -120.4235
42.480469 108.136 -124.5041
42.846680 108.342 -128.4260
43.212891 108.553 -132.1991
43.579102 108.776 -135.8672
43.945312 109.014 -139.4866
44.311523 109.263 -143.1069
44.677734 109.524 -146.7625
45.043945 109.794 -150.4709
45.410156 110.073 -154.2433
45.776367 110.361 -158.0977
46.142578 110.658 -162.0684
46.508789 110.961 -166.2030
46.875000 111.262 -170.5435
47.241211 111.551 -175.1029
47.607422 111.817 -179.8540
47.973633 112.054 175.2609
48.339844 112.264 170.3007
48.706055 112.453 165.2913
49.072266 112.628 160.2075
49.438477 112.790 154.9820
49.804688 112.933 149.5421
50.170898 113.041 143.8524
50.537109 113.096 137.9379
50.903320 113.086 131.8800
51.269531 113.006 125.7881
51.635742 112.857 119.7642
52.001953 112.650 113.8749
52.368164 112.392 108.1421
52.734375 112.092 102.5543
53.100586 111.748 97.0927
53.466797 111.359 91.7574
53.833008 110.922 86.5773
54.199219 110.435 81.6034
54.565430 109.902 76.8909
54.931641 109.330 72.4839
55.297852 108.725 68.4129
55.664062 108.094 64.7028
56.030273 107.447 61.3812
56.396484 106.796 58.4712
56.762695 106.157 55.9653
57.128906 105.549 53.7930
57.495117 104.985 51.8123
57.861328 104.464 49.8444
58.227539 103.973 47.7351
58.593750 103.486 45.4058
58.959961 102.979 42.8605
59.326172 102.432 40.1576
59.692383 101.832 37.3717
60.058594 101.171 34.5709
60.424805 100.441 31.8148
60.791016 99.633 29.1689
61.157227 98.734 26.7217
61.523438 97.729 24.5967
61.889648 96.606 22.9614
62.255859 95.351 22.0394
62.622070 93.957 22.1342
62.988281 92.423 23.6721
63.354492 90.768 27.2599
63.720703 89.063 33.7261
64.086914 87.488 43.9634
64.453125 86.386 58.1105
64.819336 86.126 74.1521
65.185547 86.715 88.5150
65.551758 87.784 99.1268
65.917969 88.976 106.1522
66.284180 90.115 110.5640
66.650391 91.143 113.2457
67.016602 92.054 114.8090
67.382812 92.863 115.6470
67.749023 93.587 116.0136
68.115234 94.248 116.0723
68.481445 94.866 115.9068
68.847656 95.462 115.5156
69.213867 96.043 114.8268
69.580078 96.607 113.7513
69.946289 97.136 112.2491
70.312500 97.610 110.3710
70.678711 98.015 108.2491
71.044922 98.349 106.0486
71.411133 98.623 103.9108
71.777344 98.857 101.9117
72.143555 99.067 100.0544
72.509766 99.266 98.2939
72.875977 99.459 96.5748
73.242188 99.645 94.8577
73.608398 99.823 93.1234
73.974609 99.991 91.3647
74.340820 100.149 89.5806
74.707031 100.296 87.7778
75.073242 100.432 85.9723
75.439453 100.557 84.1827
75.805664 100.678 82.4155
76.171875 100.797 80.6554
76.538086 100.915 78.8703
76.904297 101.029 77.0314
77.270508 101.138 75.1298
77.636719 101.238 73.1765
78.002930 101.331 71.1839
78.369141 101.420 69.1463
78.735352 101.504 67.0374
79.101562 101.577 64.8306
79.467773 101.630 62.5281
79.833984 101.657 60.1754
80.200195 101.654 57.8487
80.566406 101.626 55.6218
80.932617 101.587 53.5295
81.298828 101.549 51.5520
81.665039 101.521 49.6257
82.031250 101.501 47.6763
82.397461 101.485 45.6522
82.763672 101.464 43.5365
83.129883 101.435 41.3398
83.496094 101.395 39.0803
83.862305 101.344 36.7654
84.228516 101.283 34.3808
84.594727 101.214 31.8917
84.960938 101.130 29.2557
85.327148 101.022 26.4451
85.693359 100.876 23.4708
86.059570 100.679 20.3953
86.425781 100.423 17.3256
86.791992 100.112 14.3829
87.158203 99.758 11.6578
87.524414 99.379 9.1693
87.890625 98.988 6.8539
88.256836 98.591 4.5994
88.623047 98.177 2.3052
88.989258 97.730 -0.0702
89.355469 97.231 -2.5068
89.721680 96.669 -4.9564
90.087891 96.031 -7.3765
90.454102 95.301 -9.7281
90.820312 94.454 -11.9326
91.186523 93.459 -13.8108
91.552734 92.289 -15.0459
91.918945 90.932 -15.1932
92.285156 89.393 -13.7336
92.651367 87.699 -10.1094
93.017578 85.876 -3.5818
93.383789 83.998 7.2446
93.750000 82.419 24.5558
94.116211 82.063 47.7167
94.482422 83.387 68.5624
94.848633 85.453 81.5141
95.214844 87.458 88.3008
95.581055 89.195 91.6626
95.947266 90.687 93.2162
96.313477 92.001 93.6978
96.679688 93.183 93.3824
97.045898 94.256 92.3815
97.412109 95.222 90.8018
97.778320 96.083 88.7838
98.144531 96.845 86.4747
98.510742 97.520 83.9929
98.876953 98.121 81.4131
99.243164 98.659 78.7764
99.609375 99.142 76.1094
99.975586 99.577 73.4359
100.341797 99.970 70.7750
100.708008 100.328 68.1340
101.074219 100.659 65.5040
101.440430 100.964 62.8668
101.806641 101.243 60.2084
102.172852 101.495 57.5299
102.539062 101.717 54.8494
102.905273 101.911 52.1941
103.271484 102.078 49.5897
103.637695 102.222 47.0516
104.003906 102.349 44.5810
104.370117 102.462 42.1676
104.736328 102.563 39.7961
105.102539 102.651 37.4534
105.468750 102.725 35.1346
105.834961 102.784 32.8464
106.201172 102.828 30.6038
106.567383 102.857 28.4232
106.933594 102.875 26.3136
107.299805 102.884 24.2715
107.666016 102.887 22.2838
108.032227 102.883 20.3363
108.398438 102.871 18.4249
108.764648 102.848 16.5607
109.130859 102.813 14.7670
109.497070 102.770 13.0700
109.863281 102.721 11.4864
110.229492 102.673 10.0159
110.595703 102.631 8.6394
110.961914 102.597 7.3253
111.328125 102.571 6.0394
111.694336 102.552 4.7551
112.060547 102.536 3.4592
112.426758 102.520 2.1528
112.792969 102.501 0.8464
113.159180 102.479 -0.4455
113.525391 102.456 -1.7092
113.891602 102.431 -2.9349
114.257812 102.407 -4.1187
114.624023 102.386 -5.2642
114.990234 102.370 -6.3846
115.356445 102.360 -7.5011
115.722656 102.353 -8.6363
116.088867 102.347 -9.8033
116.455078 102.337 -10.9966
116.821289 102.319 -12.1920
117.187500 102.293 -13.3558
117.553711 102.263 -14.4600
117.919922 102.232 -15.4935
118.286133 102.205 -16.4629
118.652344 102.185 -17.3836
119.018555 102.170 -18.2698
119.384766 102.164 -19.1303
119.750977 102.167 -19.9725
120.117188 102.181 -20.8109
120.483398 102.206 -21.6689
120.849609 102.242 -22.5725
121.215820 102.284 -23.5401
121.582031 102.331 -24.5750
121.948242 102.376 -25.6654
122.314453 102.419 -26.7924
122.680664 102.460 -27.9376
123.046875 102.501 -29.0891
123.413086 102.544 -30.2452
123.779297 102.591 -31.4135
124.145508 102.643 -32.6088
124.511719 102.701 -33.8493
124.877930 102.761 -35.1491
125.244141 102.822 -36.5128
125.610352 102.882 -37.9353
125.976562 102.940 -39.4078
126.342773 102.997 -40.9266
126.708984 103.054 -42.4985
127.075195 103.109 -44.1385
127.441406 103.161 -45.8588
127.807617 103.205 -47.6595
128.173828 103.238 -49.5258
128.540039 103.259 -51.4351
128.906250 103.269 -53.3686
129.272461 103.268 -55.3185
129.638672 103.258 -57.2856
130.004883 103.237 -59.2690
130.371094 103.203 -61.2569
130.737305 103.156 -63.2264
131.103516 103.098 -65.1541
131.469727 103.034 -67.0292
131.835938 102.967 -68.8618
132.202148 102.899 -70.6767
132.568359 102.830 -72.4979
132.934570 102.754 -74.3339
133.300781 102.670 -76.1729
133.666992 102.575 -77.9919
134.033203 102.471 -79.7706
134.399414 102.361 -81.5001
134.765625 102.245 -83.1802
135.131836 102.123 -84.8094
135.498047 101.995 -86.3751
135.864258 101.862 -87.8525
136.230469 101.729 -89.2173
136.596680 101.602 -90.4598
136.962891 101.488 -91.5962
137.329102 101.393 -92.6653
137.695312 101.319 -93.7166
138.061523 101.264 -94.7935
138.427734 101.225 -95.9251
138.793945 101.197 -97.1257
139.160156 101.178 -98.3998
139.526367 101.165 -99.7476
139.892578 101.157 -101.1654
140.258789 101.150 -102.6442
140.625000 101.144 -104.1693
140.991211 101.139 -105.7236
141.357422 101.137 -107.2957
141.723633 101.143 -108.8862
142.089844 101.159 -110.5109
142.456055 101.186 -112.1951
142.822266 101.222 -113.9639
143.188477 101.266 -115.8328
143.554688 101.317 -117.8055
143.920898 101.372 -119.8799
144.287109 101.433 -122.0574
144.653320 101.500 -124.3499
145.019531 101.573 -126.7799
145.385742 101.651 -129.3737
145.751953 101.730 -132.1516
146.118164 101.803 -135.1212
146.484375 101.866 -138.2737
146.850586 101.913 -141.5859
147.216797 101.942 -145.0254
147.583008 101.953 -148.5551
147.949219 101.947 -152.1431
148.315430 101.930 -155.7711
148.681641 101.907 -159.4407
149.047852 101.880 -163.1724
149.414062 101.850 -166.9949
149.780273 101.813 -170.9290
150.146484 101.766 -174.9729
150.512695 101.703 -179.0994
150.878906 101.625 176.7346
151.245117 101.536 172.5701
151.611328 101.442 168.4281
151.977539 101.349 164.3033
152.343750 101.263 160.1704
152.709961 101.184 156.0000
153.076172 101.112 151.7751
153.442383 101.044 147.4971
153.808594 100.978 143.1794
154.174805 100.917 138.8372
154.541016 100.862 134.4758
154.907227 100.817 130.0884
155.273438 100.782 125.6599
155.639648 100.755 121.1772
156.005859 100.734 116.6379
156.372070 100.715 112.0533
156.738281 100.697 107.4470
157.104492 100.680 102.8464
157.470703 100.665 98.2747
157.836914 100.656 93.7413
158.203125 100.655 89.2413
158.569336 100.663 84.7589
158.935547 100.679 80.2781
159.301758 100.698 75.7939
159.667969 100.717 71.3196
160.034180 100.733 66.8828
160.400391 100.747 62.5166
160.766602 100.760 58.2456
161.132812 100.779 54.0752
161.499023 100.806 49.9905
161.865234 100.844 45.9645
162.231445 100.889 41.9719
162.597656 100.938 38.0015
162.963867 100.989 34.0603
163.330078 101.038 30.1683
163.696289 101.089 26.3455
164.062500 101.144 22.5989
164.428711 101.207 18.9155
164.794922 101.282 15.2633
165.161133 101.369 11.6017
165.527344 101.464 7.8940
165.893555 101.563 4.1165
166.259766 101.661 0.2603
166.625977 101.754 -3.6735
166.992188 101.837 -7.6793
167.358398 101.909 -11.7527
167.724609 101.968 -15.8901
168.090820 102.010 -20.0873
168.457031 102.032 -24.3348
168.823242 102.033 -28.6190
169.189453 102.011 -32.9231
169.555664 101.965 -37.2311
169.921875 101.894 -41.5302
170.288086 101.799 -45.8112
170.654297 101.678 -50.0652
171.020508 101.531 -54.2805
171.386719 101.357 -58.4396
171.752930 101.155 -62.5186
172.119141 100.927 -66.4915
172.485352 100.675 -70.3361
172.851562 100.404 -74.0391
173.217773 100.119 -77.5995
173.583984 99.821 -81.0251
173.950195 99.513 -84.3269
174.316406 99.197 -87.5112
174.682617 98.873 -90.5776
175.048828 98.545 -93.5240
175.415039 98.216 -96.3583
175.781250 97.892 -99.1075
176.147461 97.575 -101.8213
176.513672 97.265 -104.5593
176.879883 96.955 -107.3722
177.246094 96.636 -110.2856
177.612305 96.301 -113.2961
177.978516 95.942 -116.3817
178.344727 95.558 -119.5186
178.710938 95.147 -122.6947
179.077148 94.708 -125.9108
179.443359 94.236 -129.1721
179.809570 93.726 -132.4755
180.175781 93.174 -135.8032
180.541992 92.574 -139.1279
180.908203 91.925 -142.4259
181.274414 91.224 -145.6875
181.640625 90.469 -148.9192
182.006836 89.650 -152.1331
182.373047 88.756 -155.3290
182.739258 87.770 -158.4795
183.105469 86.672 -161.5254
183.471680 85.442 -164.3771
183.837891 84.053 -166.9194
184.204102 82.471 -169.0001
184.570312 80.641 -170.3872
184.936523 78.472 -170.6379
185.302734 75.804 -168.7173
185.668945 72.392 -161.6992
186.035156 68.314 -140.3273
186.401367 67.197 -95.8184
186.767578 70.679 -67.5179
187.133789 73.951 -59.4534
187.500000 76.313 -59.2249
187.866211 77.992 -62.5145
188.232422 79.155 -67.8016
188.598633 79.901 -74.4504
188.964844 80.286 -82.1870
189.331055 80.344 -90.9453
189.697266 80.092 -100.8351
190.063477 79.547 -112.1746
190.429688 78.741 -125.5677
190.795898 77.765 -141.9769
191.162109 76.863 -162.4910
191.528320 76.501 172.9735
191.894531 77.084 147.4868
192.260742 78.466 125.1899
192.626953 80.163 107.4747
192.993164 81.843 93.5120
193.359375 83.373 82.1375
193.725586 84.724 72.5002
194.091797 85.900 64.0629
194.458008 86.919 56.4906
194.824219 87.800 49.5656
195.190430 88.561 43.1355
195.556641 89.213 37.0902
195.922852 89.764 31.3542
196.289062 90.220 25.8872
196.655273 90.582 20.6818
197.021484 90.854 15.7583
197.387695 91.042 11.1549
197.753906 91.151 6.9149
198.120117 91.190 3.0784
198.486328 91.170 -0.3221
198.852539 91.099 -3.2598
199.218750 90.987 -5.7062
199.584961 90.844 -7.6265
199.951172 90.682 -8.9805
200.317383 90.520 -9.7346
200.683594 90.379 -9.8837
201.049805 90.286 -9.4766
201.416016 90.264 -8.6327
201.782227 90.329 -7.5350
202.148438 90.487 -6.3988
202.514648 90.727 -5.4236
202.880859 91.033 -4.7559
203.247070 91.381 -4.4741
203.613281 91.753 -4.5985
203.979492 92.131 -5.1167
204.345703 92.504 -6.0055
204.711914 92.861 -7.2429
205.078125 93.192 -8.8053
205.444336 93.487 -10.6564
205.810547 93.734 -12.7384
206.176758 93.928 -14.9728
206.542969 94.062 -17.2709
206.909180 94.140 -19.5491
207.275391 94.162 -21.7380
207.641602 94.132 -23.7809
208.007812 94.052 -25.6187
208.374023 93.924 -27.1741
208.740234 93.754 -28.3462
209.106445 93.555 -29.0244
209.472656 93.350 -29.1250
209.838867 93.170 -28.6317
210.205078 93.043 -27.6184
210.571289 92.992 -26.2354
210.937500 93.027 -24.6630
211.303711 93.148 -23.0665
211.669922 93.349 -21.5818
212.036133 93.623 -20.3247
212.402344 93.957 -19.4016
212.768555 94.339 -18.9020
213.134766 94.747 -18.8809
213.500977 95.163 -19.3479
213.867188 95.569 -20.2736
214.233398 95.952 -21.6055
214.599609 96.303 -23.2861
214.965820 96.616 -25.2620
215.332031 96.885 -27.4823
215.698242 97.105 -29.8940
216.064453 97.271 -32.4348
216.430664 97.382 -35.0336
216.796875 97.438 -37.6180
217.163086 97.444 -40.1273
217.529297 97.406 -42.5208
217.895508 97.329 -44.7799
218.261719 97.215 -46.8962
218.627930 97.064 -48.8534
218.994141 96.875 -50.6134
219.360352 96.648 -52.1176
219.726562 96.389 -53.3018
220.092773 96.107 -54.1178
220.458984 95.811 -54.5400
220.825195 95.509 -54.5527
221.191406 95.206 -54.1241
221.557617 94.912 -53.1949
221.923828 94.645 -51.7007
222.290039 94.435 -49.6287
222.656250 94.314 -47.0708
223.022461 94.307 -44.2294
223.388672 94.421 -41.3600
223.754883 94.649 -38.6995
224.121094 94.972 -36.4282
224.487305 95.367 -34.6719
224.853516 95.807 -33.5040
225.219727 96.263 -32.9346
225.585938 96.710 -32.9038
225.952148 97.130 -33.2981
226.318359 97.516 -33.9893
226.684570 97.870 -34.8749
227.050781 98.198 -35.8990
227.416992 98.502 -37.0430
227.783203 98.783 -38.2953
228.149414 99.036 -39.6235
228.515625 99.261 -40.9651
228.881836 99.461 -42.2428
229.248047 99.649 -43.3945
229.614258 99.839 -44.4028
229.980469 100.049 -45.3075
230.346680 100.289 -46.1980
230.712891 100.564 -47.1886
231.079102 100.868 -48.3882
231.445312 101.191 -49.8765
231.811523 101.520 -51.6963
232.177734 101.843 -53.8572
232.543945 102.149 -56.3457
232.910156 102.430 -59.1381
233.276367 102.679 -62.2070
233.642578 102.890 -65.5236
234.008789 103.057 -69.0548
234.375000 103.176 -72.7610
234.741211 103.244 -76.5946
235.107422 103.260 -80.5056
235.473633 103.224 -84.4470
235.839844 103.139 -88.3809
236.206055 103.009 -92.2819
236.572266 102.838 -96.1355
236.938477 102.631 -99.9364
237.304688 102.392 -103.6891
237.670898 102.126 -107.4125
238.037109 101.838 -111.1488
238.403320 101.533 -114.9688
238.769531 101.209 -118.9708
239.135742 100.862 -123.2709
239.501953 100.480 -127.9902
239.868164 100.048 -133.2478
240.234375 99.548 -139.1638
240.600586 98.964 -145.8751
240.966797 98.280 -153.5610
241.333008 97.489 -162.4751
241.699219 96.596 -172.9830
242.065430 95.641 174.4208
242.431641 94.727 159.1936
242.797852 94.051 141.1080
243.164062 93.868 120.9524
243.530273 94.316 100.7593
243.896484 95.278 82.5907
244.262695 96.508 67.2660
244.628906 97.806 54.5348
244.995117 99.065 43.7941
245.361328 100.240 34.4799
245.727539 101.317 26.1628
246.093750 102.295 18.5369
246.459961 103.175 11.3896
246.826172 103.960 4.5776
247.192383 104.650 -1.9882
247.558594 105.247 -8.3524
247.924805 105.750 -14.5239
248.291016 106.161 -20.4836
248.657227 106.485 -26.1942
249.023438 106.726 -31.6096
249.389648 106.893 -36.6836
249.755859 106.997 -41.3766
250.122070 107.050 -45.6609
250.488281 107.063 -49.5221
250.854492 107.050 -52.9606
251.220703 107.023 -55.9908
251.586914 106.992 -58.6415
251.953125 106.968 -60.9520
252.319336 106.957 -62.9700
252.685547 106.964 -64.7452
253.051758 106.992 -66.3247
253.417969 107.043 -67.7500
253.784180 107.118 -69.0576
254.150391 107.218 -70.2812
254.516602 107.341 -71.4529
254.882812 107.489 -72.6045
255.249023 107.659 -73.7632
255.615234 107.849 -74.9502
255.981445 108.058 -76.1777
256.347656 108.285 -77.4541
256.713867 108.529 -78.7881
257.080078 108.792 -80.1958
257.446289 109.075 -81.7017
257.812500 109.379 -83.3403
258.178711 109.701 -85.1514
258.544922 110.040 -87.1748
258.911133 110.391 -89.4497
259.277344 110.748 -92.0107
259.643555 111.104 -94.8855
260.009766 111.450 -98.0906
260.375977 111.777 -101.6279
260.742188 112.074 -105.4829
261.108398 112.332 -109.6240
261.474609 112.545 -114.0063
261.840820 112.707 -118.5786
262.207031 112.814 -123.2871
262.573242 112.864 -128.0781
262.939453 112.858 -132.9014
263.305664 112.794 -137.7041
263.671875 112.674 -142.4341
264.038086 112.500 -147.0352
264.404297 112.277 -151.4521
264.770508 112.011 -155.6340
265.136719 111.711 -159.5425
265.502930 111.388 -163.1570
265.869141 111.053 -166.4797
266.235352 110.715 -169.5359
266.601562 110.383 -172.3701
266.967773 110.063 -175.0393
267.333984 109.757 -177.6035
267.700195 109.462 179.8813
268.066406 109.177 177.3701
268.432617 108.896 174.8303
268.798828 108.614 172.2422
269.165039 108.326 169.5952
269.531250 108.029 166.8833
269.897461 107.717 164.1055
270.263672 107.387 161.2642
270.629883 107.034 158.3652
270.996094 106.653 155.4209
271.362305 106.243 152.4441
271.728516 105.799 149.4473
272.094727 105.319 146.4387
272.460938 104.798 143.4199
272.827148 104.232 140.3906
273.193359 103.610 137.3552
273.559570 102.920 134.3318
273.925781 102.145 131.3660
274.291992 101.265 128.5464
274.658203 100.258 126.0254
275.024414 99.099 124.0522
275.390625 97.767 123.0195
275.756836 96.257 123.5352
276.123047 94.606 126.4961
276.489258 92.963 133.0068
276.855469 91.663 143.6323
277.221680 91.135 156.7314
277.587891 91.460 168.5269
277.954102 92.266 176.5288
278.320312 93.162 -179.1958
278.686523 93.951 -177.6016
279.052734 94.566 -177.7273
279.418945 95.000 -178.8970
279.785156 95.266 179.3398
280.151367 95.382 177.2827
280.517578 95.365 175.1365
280.883789 95.234 173.0459
281.250000 95.002 171.1201
281.616211 94.685 169.4453
281.982422 94.299 168.0869
282.348633 93.860 167.0801
282.714844 93.385 166.4160
283.081055 92.889 166.0312
283.447266 92.377 165.8157
283.813477 91.845 165.6362
284.179688 91.272 165.3704
284.545898 90.625 164.9375
284.912109 89.859 164.3242
285.278320 88.909 163.6104
285.644531 87.687 163.0283
286.010742 86.067 163.1008
286.376953 83.848 165.0518
286.743164 80.732 172.2505
287.109375 76.797 -164.4829
287.475586 76.353 -116.5146
287.841797 80.409 -88.8145
288.208008 83.905 -80.2017
288.574219 86.455 -77.9668
288.940430 88.362 -78.0935
289.306641 89.829 -79.1794
289.672852 90.981 -80.6123
290.039062 91.894 -82.0615
290.405273 92.627 -83.3093
290.771484 93.223 -84.1953
291.137695 93.728 -84.6099
291.503906 94.184 -84.5066
291.870117 94.630 -83.9160
292.236328 95.100 -82.9438
292.602539 95.617 -81.7480
292.968750 96.193 -80.5093
293.334961 96.830 -79.4011
293.701172 97.520 -78.5776
294.067383 98.252 -78.1621
294.433594 99.005 -78.2344
294.799805 99.762 -78.8247
295.166016 100.501 -79.9114
295.532227 101.209 -81.4355
295.898438 101.876 -83.3191
296.264648 102.498 -85.4844
296.630859 103.075 -87.8657
296.997070 103.607 -90.4143
297.363281 104.098 -93.0935
297.729492 104.547 -95.8733
298.095703 104.957 -98.7253
298.461914 105.329 -101.6226
298.828125 105.666 -104.5410
299.194336 105.971 -107.4653
299.560547 106.248 -110.3894
299.926758 106.499 -113.3184
