* Measurement data measured by REW V5.20.8
* Source: ASIO hdspfire, Analog 1 (1)
* Format: 4M Log Swept Sine, 1 sweep at -12.0 dBFS with no timing reference
* Dated: 13 juin 2022 14:05:08
* REW Settings:
*  C-weighting compensation: Off
*  Target level: 75.0 dB
* Note: ; 
* Measurement: on_0x1400_4_2 juin 13
* Smoothing: None
* Frequency Step: 0.36621094 Hz
* Start Frequency: 0.36621094 Hz
*
* Freq(Hz) SPL(dB) Phase(degrees)
0.366211 17.455 44.9682
0.732422 20.847 41.0696
1.098633 20.797 33.7418
1.464844 18.181 37.5478
1.831055 16.294 67.7886
2.197266 18.586 91.0092
2.563477 20.122 97.4559
2.929688 20.777 104.1553
3.295898 22.120 108.6507
3.662109 23.715 99.9322
4.028320 24.456 76.8021
4.394531 24.617 42.6834
4.760742 24.928 7.2517
5.126953 24.977 -12.9209
5.493164 25.965 -2.1247
5.859375 31.646 10.8537
6.225586 37.388 3.0288
6.591797 41.507 -12.0747
6.958008 44.261 -28.1531
7.324219 45.967 -42.3021
7.690430 47.001 -52.3104
8.056641 47.961 -57.1592
8.422852 49.465 -59.4649
8.789062 51.463 -63.9773
9.155273 53.391 -72.0016
9.521484 54.881 -81.5051
9.887695 55.919 -89.6363
10.253906 56.821 -94.1155
10.620117 58.154 -95.3225
10.986328 60.162 -97.3055
11.352539 62.414 -103.2465
11.718750 64.384 -112.6986
12.084961 65.814 -123.6705
12.451172 66.635 -134.0005
12.817383 66.930 -141.3714
13.183594 67.051 -143.4814
13.549805 67.727 -140.4459
13.916016 69.416 -137.6371
14.282227 71.601 -139.9974
14.648438 73.606 -147.3125
15.014648 75.137 -157.4961
15.380859 76.122 -168.7278
15.747070 76.572 -179.5311
16.113281 76.550 171.5511
16.479492 76.233 166.0918
16.845703 76.020 165.0577
17.211914 76.426 166.7312
17.578125 77.530 166.7608
17.944336 78.857 162.6396
18.310547 79.956 154.9957
18.676758 80.616 145.4894
19.042969 80.776 135.7286
19.409180 80.455 127.2080
19.775391 79.757 121.4079
20.141602 78.924 119.5245
20.507812 78.322 121.4600
20.874023 78.193 125.1575
21.240234 78.416 128.5074
21.606445 78.760 131.4064
21.972656 79.196 134.8188
22.338867 79.878 138.8465
22.705078 80.880 142.2682
23.071289 82.062 144.0276
23.437500 83.244 144.3461
23.803711 84.360 144.1635
24.169922 85.505 144.1038
24.536133 86.807 143.8862
24.902344 88.295 142.5703
25.268555 89.876 139.3969
25.634766 91.416 134.2561
26.000977 92.817 127.4973
26.367188 94.031 119.5929
26.733398 95.040 110.9695
27.099609 95.840 101.9914
27.465820 96.432 93.0097
27.832031 96.828 84.4153
28.198242 97.059 76.6521
28.564453 97.195 70.1434
28.930664 97.353 65.0782
29.296875 97.667 61.1137
29.663086 98.216 57.3133
30.029297 98.961 52.6223
30.395508 99.776 46.4857
30.761719 100.533 38.9859
31.127930 101.149 30.5842
31.494141 101.594 21.8455
31.860352 101.883 13.2807
32.226562 102.057 5.2612
32.592773 102.167 -2.0365
32.958984 102.265 -8.6495
33.325195 102.387 -14.7721
33.691406 102.537 -20.6248
34.057617 102.697 -26.3206
34.423828 102.850 -31.8195
34.790039 102.993 -36.9899
35.156250 103.146 -41.7314
35.522461 103.340 -46.0847
35.888672 103.596 -50.2502
36.254883 103.905 -54.4836
36.621094 104.236 -58.9365
36.987305 104.552 -63.5673
37.353516 104.835 -68.1842
37.719727 105.096 -72.5785
38.085938 105.370 -76.6783
38.452148 105.691 -80.6322
38.818359 106.068 -84.7465
39.184570 106.471 -89.2981
39.550781 106.850 -94.3659
39.916992 107.157 -99.7979
40.283203 107.372 -105.2979
40.649414 107.502 -110.5551
41.015625 107.581 -115.3613
41.381836 107.651 -119.6815
41.748047 107.745 -123.6425
42.114258 107.875 -127.4393
42.480469 108.034 -131.2240
42.846680 108.209 -135.0579
43.212891 108.397 -138.9464
43.579102 108.594 -142.9011
43.945312 108.797 -146.9664
44.311523 108.994 -151.1902
44.677734 109.174 -155.5744
45.043945 109.326 -160.0543
45.410156 109.448 -164.5279
45.776367 109.549 -168.9155
46.142578 109.644 -173.2094
46.508789 109.744 -177.4794
46.875000 109.851 178.1730
47.241211 109.952 173.6755
47.607422 110.036 169.0181
47.973633 110.094 164.2379
48.339844 110.122 159.3765
48.706055 110.124 154.4449
49.072266 110.098 149.4198
49.438477 110.039 144.2697
49.804688 109.936 138.9916
50.170898 109.777 133.6279
50.537109 109.556 128.2562
50.903320 109.275 122.9585
51.269531 108.940 117.7875
51.635742 108.560 112.7469
52.001953 108.142 107.7938
52.368164 107.682 102.8616
52.734375 107.171 97.8917
53.100586 106.592 92.8612
53.466797 105.923 87.8009
53.833008 105.143 82.8047
54.199219 104.234 78.0316
54.565430 103.184 73.6983
54.931641 101.993 70.0556
55.297852 100.673 67.3461
55.664062 99.244 65.7593
56.030273 97.719 65.4353
56.396484 96.095 66.5823
56.762695 94.362 69.7130
57.128906 92.573 75.8249
57.495117 90.953 86.0093
57.861328 89.927 99.8126
58.227539 89.734 114.1198
58.593750 90.117 126.1522
58.959961 90.735 135.8607
59.326172 91.497 144.1346
59.692383 92.437 151.0771
60.058594 93.524 156.1576
60.424805 94.636 159.1533
60.791016 95.657 160.4748
61.157227 96.544 160.8113
61.523438 97.322 160.7136
61.889648 98.041 160.3900
62.255859 98.735 159.7432
62.622070 99.401 158.5900
62.988281 100.006 156.8859
63.354492 100.520 154.7966
63.720703 100.934 152.6141
64.086914 101.267 150.6132
64.453125 101.555 148.9340
64.819336 101.838 147.5416
65.185547 102.138 146.2847
65.551758 102.454 145.0140
65.917969 102.776 143.6655
66.284180 103.097 142.2577
66.650391 103.419 140.8240
67.016602 103.750 139.3519
67.382812 104.096 137.7739
67.749023 104.451 136.0130
68.115234 104.804 134.0358
68.481445 105.142 131.8693
68.847656 105.463 129.5737
69.213867 105.770 127.1960
69.580078 106.069 124.7378
69.946289 106.363 122.1591
70.312500 106.648 119.4109
70.678711 106.914 116.4750
71.044922 107.151 113.3809
71.411133 107.353 110.1945
71.777344 107.522 106.9868
72.143555 107.664 103.8017
72.509766 107.787 100.6408
72.875977 107.896 97.4718
73.242188 107.989 94.2568
73.608398 108.058 90.9830
73.974609 108.097 87.6772
74.340820 108.103 84.3984
74.707031 108.078 81.2120
75.073242 108.033 78.1601
75.439453 107.974 75.2437
75.805664 107.910 72.4261
76.171875 107.840 69.6583
76.538086 107.760 66.9086
76.904297 107.660 64.1823
77.270508 107.540 61.5184
77.636719 107.400 58.9669
78.002930 107.247 56.5623
78.369141 107.089 54.3064
78.735352 106.932 52.1712
79.101562 106.774 50.1191
79.467773 106.613 48.1286
79.833984 106.443 46.2091
80.200195 106.261 44.3983
80.566406 106.069 42.7435
80.932617 105.876 41.2782
81.298828 105.692 40.0021
81.665039 105.527 38.8771
82.031250 105.384 37.8391
82.397461 105.262 36.8212
82.763672 105.157 35.7772
83.129883 105.060 34.6934
83.496094 104.966 33.5837
83.862305 104.874 32.4726
84.228516 104.783 31.3741
84.594727 104.699 30.2794
84.960938 104.621 29.1603
85.327148 104.546 27.9880
85.693359 104.466 26.7551
86.059570 104.374 25.4890
86.425781 104.265 24.2478
86.791992 104.142 23.1009
87.158203 104.013 22.1019
87.524414 103.888 21.2678
87.890625 103.779 20.5714
88.256836 103.693 19.9507
88.623047 103.630 19.3326
88.989258 103.586 18.6548
89.355469 103.552 17.8832
89.721680 103.519 17.0158
90.087891 103.479 16.0801
90.454102 103.427 15.1238
90.820312 103.363 14.2032
91.186523 103.289 13.3703
91.552734 103.213 12.6605
91.918945 103.143 12.0851
92.285156 103.085 11.6317
92.651367 103.047 11.2703
93.017578 103.033 10.9636
93.383789 103.045 10.6735
93.750000 103.084 10.3623
94.116211 103.152 9.9878
94.482422 103.248 9.5001
94.848633 103.370 8.8417
95.214844 103.509 7.9559
95.581055 103.656 6.7993
95.947266 103.798 5.3558
96.313477 103.920 3.6453
96.679688 104.009 1.7259
97.045898 104.058 -0.3146
97.412109 104.065 -2.3740
97.778320 104.035 -4.3563
98.144531 103.978 -6.1918
98.510742 103.908 -7.8500
98.876953 103.836 -9.3409
99.243164 103.771 -10.7023
99.609375 103.719 -11.9827
99.975586 103.680 -13.2273
100.341797 103.656 -14.4752
100.708008 103.645 -15.7643
101.074219 103.647 -17.1367
101.440430 103.657 -18.6342
101.806641 103.665 -20.2870
102.172852 103.662 -22.1012
102.539062 103.639 -24.0518
102.905273 103.586 -26.0872
103.271484 103.501 -28.1401
103.637695 103.384 -30.1422
104.003906 103.240 -32.0365
104.370117 103.076 -33.7851
104.736328 102.901 -35.3728
105.102539 102.722 -36.8056
105.468750 102.544 -38.1053
105.834961 102.370 -39.3007
106.201172 102.201 -40.4177
106.567383 102.034 -41.4713
106.933594 101.869 -42.4626
107.299805 101.704 -43.3835
107.666016 101.541 -44.2250
108.032227 101.383 -44.9847
108.398438 101.233 -45.6699
108.764648 101.091 -46.2936
109.130859 100.958 -46.8693
109.497070 100.833 -47.4085
109.863281 100.716 -47.9235
110.229492 100.607 -48.4288
110.595703 100.501 -48.9361
110.961914 100.395 -49.4411
111.328125 100.285 -49.9144
111.694336 100.172 -50.3058
112.060547 100.062 -50.5701
112.426758 99.968 -50.7003
112.792969 99.900 -50.7465
113.159180 99.862 -50.7994
113.525391 99.849 -50.9435
113.891602 99.847 -51.2105
114.257812 99.845 -51.5682
114.624023 99.840 -51.9500
114.990234 99.836 -52.3009
115.356445 99.843 -52.6108
115.722656 99.868 -52.9126
116.088867 99.911 -53.2550
116.455078 99.970 -53.6740
116.821289 100.043 -54.1854
117.187500 100.125 -54.7975
117.553711 100.217 -55.5229
117.919922 100.315 -56.3765
118.286133 100.414 -57.3608
118.652344 100.509 -58.4595
119.018555 100.599 -59.6482
119.384766 100.688 -60.9167
119.750977 100.778 -62.2832
120.117188 100.867 -63.7832
120.483398 100.949 -65.4397
120.849609 101.015 -67.2390
121.215820 101.059 -69.1322
121.582031 101.084 -71.0651
121.948242 101.096 -73.0157
122.314453 101.100 -75.0107
122.680664 101.095 -77.1050
123.046875 101.070 -79.3374
123.413086 101.013 -81.6902
123.779297 100.912 -84.0828
124.145508 100.766 -86.3999
124.511719 100.581 -88.5375
124.877930 100.374 -90.4423
125.244141 100.157 -92.1218
125.610352 99.939 -93.6237
125.976562 99.722 -94.9967
126.342773 99.503 -96.2645
126.708984 99.281 -97.4243
127.075195 99.055 -98.4662
127.441406 98.827 -99.3894
127.807617 98.597 -100.2004
128.173828 98.362 -100.8948
128.540039 98.119 -101.4407
128.906250 97.868 -101.7795
129.272461 97.617 -101.8475
129.638672 97.378 -101.6053
130.004883 97.167 -101.0591
130.371094 96.999 -100.2615
130.737305 96.883 -99.2963
131.103516 96.822 -98.2583
131.469727 96.817 -97.2371
131.835938 96.862 -96.3083
132.202148 96.951 -95.5284
132.568359 97.076 -94.9340
132.934570 97.229 -94.5464
133.300781 97.405 -94.3766
133.666992 97.596 -94.4281
134.033203 97.796 -94.6922
134.399414 97.999 -95.1459
134.765625 98.205 -95.7586
135.131836 98.414 -96.5081
135.498047 98.629 -97.3976
135.864258 98.850 -98.4562
136.230469 99.072 -99.7179
136.596680 99.288 -101.1906
136.962891 99.487 -102.8389
137.329102 99.666 -104.5948
137.695312 99.828 -106.3917
138.061523 99.983 -108.2009
138.427734 100.138 -110.0463
138.793945 100.298 -111.9860
139.160156 100.456 -114.0698
139.526367 100.603 -116.3058
139.892578 100.733 -118.6561
140.258789 100.843 -121.0625
140.625000 100.939 -123.4830
140.991211 101.028 -125.9141
141.357422 101.113 -128.3855
141.723633 101.194 -130.9342
142.089844 101.266 -133.5776
142.456055 101.324 -136.3041
142.822266 101.365 -139.0859
143.188477 101.392 -141.9010
143.554688 101.406 -144.7450
143.920898 101.409 -147.6279
144.287109 101.397 -150.5575
144.653320 101.368 -153.5234
145.019531 101.319 -156.4967
145.385742 101.251 -159.4429
145.751953 101.168 -162.3394
146.118164 101.074 -165.1851
146.484375 100.971 -167.9941
146.850586 100.858 -170.7776
147.216797 100.731 -173.5286
147.583008 100.591 -176.2195
147.949219 100.440 -178.8185
148.315430 100.284 178.6899
148.681641 100.130 176.2896
149.047852 99.982 173.9382
149.414062 99.837 171.5879
149.780273 99.690 169.2109
150.146484 99.534 166.8135
150.512695 99.364 164.4292
150.878906 99.180 162.1008
151.245117 98.984 159.8616
151.611328 98.781 157.7272
151.977539 98.573 155.6998
152.343750 98.360 153.7822
152.709961 98.143 151.9869
153.076172 97.924 150.3374
153.442383 97.705 148.8616
153.808594 97.492 147.5822
154.174805 97.290 146.5127
154.541016 97.107 145.6564
154.907227 96.952 145.0066
155.273438 96.833 144.5415
155.639648 96.760 144.2150
156.005859 96.739 143.9539
156.372070 96.773 143.6658
156.738281 96.858 143.2609
157.104492 96.985 142.6726
157.470703 97.145 141.8669
157.836914 97.329 140.8356
158.203125 97.530 139.5815
158.569336 97.744 138.1074
158.935547 97.966 136.4121
159.301758 98.191 134.4968
159.667969 98.414 132.3713
160.034180 98.629 130.0552
160.400391 98.833 127.5754
160.766602 99.024 124.9583
161.132812 99.201 122.2261
161.499023 99.363 119.3965
161.865234 99.507 116.4879
162.231445 99.634 113.5245
162.597656 99.741 110.5375
162.963867 99.831 107.5605
163.330078 99.905 104.6232
163.696289 99.969 101.7434
164.062500 100.026 98.9271
164.428711 100.080 96.1715
164.794922 100.133 93.4724
165.161133 100.188 90.8276
165.527344 100.245 88.2358
165.893555 100.310 85.6897
166.259766 100.384 83.1711
166.625977 100.470 80.6514
166.992188 100.568 78.0986
167.358398 100.675 75.4858
167.724609 100.787 72.7983
168.090820 100.902 70.0322
168.457031 101.017 67.1891
168.823242 101.132 64.2706
169.189453 101.243 61.2754
169.555664 101.352 58.1990
169.921875 101.454 55.0370
170.288086 101.549 51.7871
170.654297 101.633 48.4507
171.020508 101.703 45.0330
171.386719 101.757 41.5442
171.752930 101.792 37.9994
172.119141 101.807 34.4180
172.485352 101.800 30.8212
172.851562 101.770 27.2292
173.217773 101.720 23.6591
173.583984 101.648 20.1250
173.950195 101.555 16.6418
174.316406 101.441 13.2269
174.682617 101.308 9.9014
175.048828 101.158 6.6852
175.415039 100.995 3.5923
175.781250 100.822 0.6243
176.147461 100.645 -2.2291
176.513672 100.464 -4.9856
176.879883 100.281 -7.6638
177.246094 100.096 -10.2778
177.612305 99.907 -12.8376
177.978516 99.715 -15.3519
178.344727 99.519 -17.8314
178.710938 99.318 -20.2888
179.077148 99.109 -22.7352
179.443359 98.890 -25.1748
179.809570 98.656 -27.6030
180.175781 98.405 -30.0074
180.541992 98.134 -32.3721
180.908203 97.843 -34.6808
181.274414 97.530 -36.9188
181.640625 97.193 -39.0707
182.006836 96.830 -41.1171
182.373047 96.439 -43.0316
182.739258 96.019 -44.7800
183.105469 95.569 -46.3214
183.471680 95.089 -47.6104
183.837891 94.581 -48.5979
184.204102 94.046 -49.2305
184.570312 93.489 -49.4448
184.936523 92.913 -49.1628
185.302734 92.328 -48.2896
185.668945 91.752 -46.7244
186.035156 91.211 -44.3904
186.401367 90.741 -41.2767
186.767578 90.381 -37.4792
187.133789 90.163 -33.2096
187.500000 90.107 -28.7599
187.866211 90.209 -24.4392
188.232422 90.452 -20.5171
188.598633 90.808 -17.1925
188.964844 91.243 -14.5814
189.331055 91.721 -12.7164
189.697266 92.212 -11.5573
190.063477 92.692 -11.0128
190.429688 93.145 -10.9679
190.795898 93.564 -11.3060
191.162109 93.946 -11.9241
191.528320 94.293 -12.7386
191.894531 94.608 -13.6881
192.260742 94.898 -14.7327
192.626953 95.165 -15.8522
192.993164 95.415 -17.0419
193.359375 95.647 -18.3042
193.725586 95.862 -19.6379
194.091797 96.058 -21.0317
194.458008 96.233 -22.4618
194.824219 96.389 -23.8972
195.190430 96.528 -25.3108
195.556641 96.656 -26.6873
195.922852 96.776 -28.0282
196.289062 96.892 -29.3506
196.655273 97.005 -30.6779
197.021484 97.114 -32.0309
197.387695 97.216 -33.4191
197.753906 97.307 -34.8367
198.120117 97.384 -36.2654
198.486328 97.448 -37.6790
198.852539 97.498 -39.0527
199.218750 97.537 -40.3704
199.584961 97.569 -41.6283
199.951172 97.596 -42.8344
200.317383 97.618 -44.0005
200.683594 97.633 -45.1338
201.049805 97.639 -46.2279
201.416016 97.633 -47.2603
201.782227 97.614 -48.1968
202.148438 97.584 -48.9991
202.514648 97.547 -49.6321
202.880859 97.509 -50.0658
203.247070 97.477 -50.2745
203.613281 97.458 -50.2358
203.979492 97.465 -49.9382
204.345703 97.513 -49.3975
204.711914 97.618 -48.6744
205.078125 97.792 -47.8795
205.444336 98.041 -47.1558
205.810547 98.361 -46.6478
206.176758 98.743 -46.4763
206.542969 99.171 -46.7314
206.909180 99.632 -47.4799
207.275391 100.110 -48.7693
207.641602 100.585 -50.6248
208.007812 101.037 -53.0364
208.374023 101.446 -55.9532
208.740234 101.797 -59.2874
209.106445 102.079 -62.9281
209.472656 102.288 -66.7595
209.838867 102.424 -70.6760
210.205078 102.491 -74.5900
210.571289 102.494 -78.4326
210.937500 102.439 -82.1494
211.303711 102.332 -85.6941
211.669922 102.179 -89.0258
212.036133 101.987 -92.1108
212.402344 101.763 -94.9263
212.768555 101.516 -97.4624
213.134766 101.251 -99.7194
213.500977 100.974 -101.7001
213.867188 100.688 -103.4028
214.233398 100.398 -104.8185
214.599609 100.108 -105.9358
214.965820 99.828 -106.7505
215.332031 99.564 -107.2700
215.698242 99.324 -107.5149
216.064453 99.116 -107.5140
216.430664 98.946 -107.3036
216.796875 98.822 -106.9324
217.163086 98.751 -106.4694
217.529297 98.735 -106.0048
217.895508 98.774 -105.6392
218.261719 98.859 -105.4635
218.627930 98.980 -105.5424
218.994141 99.123 -105.9073
219.360352 99.276 -106.5612
219.726562 99.430 -107.4856
220.092773 99.576 -108.6505
220.458984 99.709 -110.0214
220.825195 99.828 -111.5675
221.191406 99.930 -113.2679
221.557617 100.015 -115.1138
221.923828 100.079 -117.1017
222.290039 100.118 -119.2256
222.656250 100.128 -121.4672
223.022461 100.102 -123.7955
223.388672 100.039 -126.1740
223.754883 99.936 -128.5690
224.121094 99.790 -130.9547
224.487305 99.597 -133.3052
224.853516 99.351 -135.5776
225.219727 99.042 -137.6951
225.585938 98.664 -139.5358
225.952148 98.217 -140.9351
226.318359 97.708 -141.6970
226.684570 97.158 -141.6121
227.050781 96.603 -140.4811
227.416992 96.096 -138.1626
227.783203 95.712 -134.6639
228.149414 95.535 -130.2698
228.515625 95.621 -125.5989
228.881836 95.967 -121.4396
229.248047 96.503 -118.4165
229.614258 97.128 -116.7690
229.980469 97.756 -116.3853
230.346680 98.331 -116.9656
230.712891 98.829 -118.1692
231.079102 99.250 -119.7025
231.445312 99.610 -121.3606
231.811523 99.926 -123.0375
232.177734 100.220 -124.7133
232.543945 100.502 -126.4211
232.910156 100.774 -128.2070
233.276367 101.036 -130.0970
233.642578 101.281 -132.0873
234.008789 101.509 -134.1508
234.375000 101.718 -136.2544
234.741211 101.912 -138.3712
235.107422 102.093 -140.4845
235.473633 102.265 -142.5828
235.839844 102.431 -144.6558
236.206055 102.595 -146.6945
236.572266 102.761 -148.6971
236.938477 102.936 -150.6755
237.304688 103.125 -152.6564
237.670898 103.329 -154.6744
238.037109 103.551 -156.7648
238.403320 103.788 -158.9576
238.769531 104.042 -161.2811
239.135742 104.311 -163.7676
239.501953 104.594 -166.4564
239.868164 104.886 -169.3905
240.234375 105.182 -172.6069
240.600586 105.472 -176.1267
240.966797 105.747 -179.9504
241.333008 105.998 175.9407
241.699219 106.219 171.5786
242.065430 106.404 167.0021
242.431641 106.552 162.2509
242.797852 106.660 157.3628
243.164062 106.729 152.3722
243.530273 106.759 147.3091
243.896484 106.754 142.1971
244.262695 106.715 137.0530
244.628906 106.644 131.8834
244.995117 106.545 126.6848
245.361328 106.419 121.4434
245.727539 106.263 116.1377
246.093750 106.075 110.7451
246.459961 105.848 105.2493
246.826172 105.573 99.6494
247.192383 105.237 93.9680
247.558594 104.829 88.2560
247.924805 104.337 82.5950
248.291016 103.754 77.0970
248.657227 103.073 71.9041
249.023438 102.293 67.1846
249.389648 101.422 63.1311
249.755859 100.475 59.9518
250.122070 99.482 57.8551
250.488281 98.488 57.0143
250.854492 97.555 57.5059
251.220703 96.758 59.2230
251.586914 96.167 61.8069
251.953125 95.822 64.6737
252.319336 95.713 67.1802
252.685547 95.786 68.8330
253.051758 95.969 69.4005
253.417969 96.195 68.8860
253.784180 96.417 67.4359
254.150391 96.603 65.2534
254.516602 96.740 62.5414
254.882812 96.828 59.4714
255.249023 96.870 56.1707
255.615234 96.875 52.7185
255.981445 96.852 49.1501
256.347656 96.808 45.4645
256.713867 96.745 41.6338
257.080078 96.662 37.6147
257.446289 96.555 33.3569
257.812500 96.414 28.8101
258.178711 96.226 23.9282
258.544922 95.972 18.6716
258.911133 95.630 13.0076
259.277344 95.170 6.9116
259.643555 94.554 0.3707
260.009766 93.728 -6.6116
260.375977 92.617 -14.0065
260.742188 91.095 -21.7416
261.108398 88.947 -29.6553
261.474609 85.697 -37.3156
261.840820 79.872 -42.7531
262.207031 62.434 36.1410
262.573242 80.228 103.1907
262.939453 86.056 97.1555
263.305664 89.375 88.7341
263.671875 91.598 79.8087
264.038086 93.182 70.8217
264.404297 94.339 61.9604
264.770508 95.186 53.3284
265.136719 95.798 44.9868
265.502930 96.226 36.9698
265.869141 96.510 29.2893
266.235352 96.679 21.9376
266.601562 96.757 14.8899
266.967773 96.761 8.1047
267.333984 96.708 1.5286
267.700195 96.606 -4.9016
268.066406 96.462 -11.2548
268.432617 96.281 -17.6034
268.798828 96.065 -24.0251
269.165039 95.813 -30.6035
269.531250 95.524 -37.4292
269.897461 95.194 -44.5979
270.263672 94.818 -52.2069
270.629883 94.392 -60.3518
270.996094 93.915 -69.1294
271.362305 93.394 -78.6429
271.728516 92.848 -89.0092
272.094727 92.311 -100.3510
272.460938 91.837 -112.7634
272.827148 91.492 -126.2394
273.193359 91.351 -140.5750
273.559570 91.467 -155.3265
273.925781 91.853 -169.8998
274.291992 92.472 176.2518
274.658203 93.259 163.4637
275.024414 94.147 151.8296
275.390625 95.081 141.2708
275.756836 96.020 131.6256
276.123047 96.939 122.7140
276.489258 97.820 114.3738
276.855469 98.652 106.4752
277.221680 99.428 98.9233
277.587891 100.141 91.6530
277.954102 100.790 84.6229
278.320312 101.373 77.8105
278.686523 101.891 71.2089
279.052734 102.343 64.8224
279.418945 102.734 58.6638
279.785156 103.067 52.7484
280.151367 103.347 47.0884
280.517578 103.583 41.6891
280.883789 103.778 36.5485
281.250000 103.939 31.6589
281.616211 104.071 27.0112
281.982422 104.178 22.5968
282.348633 104.263 18.4060
282.714844 104.332 14.4255
283.081055 104.386 10.6357
283.447266 104.428 7.0121
283.813477 104.457 3.5322
284.179688 104.472 0.1838
284.545898 104.471 -3.0295
284.912109 104.450 -6.0895
285.278320 104.412 -8.9684
285.644531 104.357 -11.6385
286.010742 104.292 -14.0790
286.376953 104.221 -16.2789
286.743164 104.149 -18.2379
287.109375 104.084 -19.9646
287.475586 104.028 -21.4757
287.841797 103.988 -22.7957
288.208008 103.965 -23.9540
288.574219 103.960 -24.9807
288.940430 103.974 -25.9001
289.306641 104.005 -26.7260
289.672852 104.053 -27.4607
290.039062 104.117 -28.0996
290.405273 104.202 -28.6378
290.771484 104.310 -29.0779
291.137695 104.448 -29.4354
291.503906 104.620 -29.7424
291.870117 104.831 -30.0452
292.236328 105.082 -30.3994
292.602539 105.371 -30.8636
292.968750 105.697 -31.4927
293.334961 106.052 -32.3339
293.701172 106.432 -33.4249
294.067383 106.828 -34.7931
294.433594 107.232 -36.4535
294.799805 107.636 -38.4077
295.166016 108.032 -40.6434
295.532227 108.414 -43.1373
295.898438 108.776 -45.8608
296.264648 109.116 -48.7844
296.630859 109.433 -51.8821
296.997070 109.724 -55.1311
297.363281 109.990 -58.5114
297.729492 110.229 -62.0042
298.095703 110.442 -65.5934
298.461914 110.631 -69.2686
298.828125 110.796 -73.0283
299.194336 110.938 -76.8828
299.560547 111.057 -80.8494
299.926758 111.150 -84.9497
