* Measurement data measured by REW V5.20.8
* Source: ASIO hdspfire, Analog 1 (1)
* Format: 4M Log Swept Sine, 1 sweep at -12.0 dBFS with no timing reference
* Dated: 13 juin 2022 13:51:39
* REW Settings:
*  C-weighting compensation: Off
*  Target level: 75.0 dB
* Note: ; 
* Measurement: on_0x1400_2_1 juin 13
* Smoothing: None
* Frequency Step: 0.36621094 Hz
* Start Frequency: 0.36621094 Hz
*
* Freq(Hz) SPL(dB) Phase(degrees)
0.366211 16.635 40.7274
0.732422 20.339 36.8054
1.098633 21.195 27.2363
1.464844 19.997 21.7066
1.831055 17.288 28.9356
2.197266 15.417 59.0031
2.563477 17.964 92.2554
2.929688 22.123 104.5987
3.295898 25.498 102.2665
3.662109 27.441 92.0495
4.028320 27.601 79.3557
4.394531 25.431 73.0415
4.760742 22.932 101.3886
5.126953 28.683 124.2526
5.493164 33.961 108.5443
5.859375 37.507 81.1838
6.225586 40.117 49.8113
6.591797 42.184 18.2044
6.958008 43.776 -10.6626
7.324219 44.838 -34.3962
7.690430 45.460 -50.7029
8.056641 46.205 -58.2078
8.422852 47.892 -60.8672
8.789062 50.336 -66.3284
9.155273 52.633 -76.3240
9.521484 54.295 -88.0793
9.887695 55.269 -98.2541
10.253906 55.856 -103.7555
10.620117 56.791 -103.7876
10.986328 58.646 -103.2482
11.352539 60.948 -107.5354
11.718750 62.943 -116.4549
12.084961 64.273 -127.2941
12.451172 64.855 -137.1108
12.817383 64.819 -142.5213
13.183594 64.806 -140.1564
13.549805 66.023 -132.6135
13.916016 68.516 -129.9063
14.282227 71.116 -135.0497
14.648438 73.198 -145.0846
15.014648 74.634 -157.2980
15.380859 75.428 -169.9078
15.747070 75.611 178.5363
16.113281 75.244 169.7014
16.479492 74.543 165.7631
16.845703 74.114 168.1799
17.211914 74.738 173.4922
17.578125 76.271 174.7354
17.944336 77.875 169.9888
18.310547 79.043 161.2975
18.676758 79.611 150.9436
19.042969 79.541 140.8065
19.409180 78.846 132.7708
19.775391 77.646 129.1708
20.141602 76.358 132.4871
20.507812 75.801 142.3280
20.874023 76.387 153.0458
21.240234 77.622 160.7245
21.606445 79.112 165.9490
21.972656 80.826 169.2152
22.338867 82.701 169.8370
22.705078 84.528 167.5823
23.071289 86.124 163.2787
23.437500 87.437 158.2158
23.803711 88.519 153.5349
24.169922 89.531 149.7986
24.536133 90.639 146.6925
24.902344 91.911 143.2190
25.268555 93.283 138.4675
25.634766 94.627 132.1782
26.000977 95.848 124.6388
26.367188 96.903 116.3234
26.733398 97.790 107.6500
27.099609 98.530 98.9008
27.465820 99.144 90.2425
27.832031 99.649 81.7893
28.198242 100.064 73.6597
28.564453 100.412 65.9827
28.930664 100.733 58.8368
29.296875 101.076 52.1509
29.663086 101.478 45.6502
30.029297 101.944 38.9373
30.395508 102.439 31.6838
30.761719 102.904 23.7903
31.127930 103.287 15.4055
31.494141 103.558 6.8376
31.860352 103.720 -1.5654
32.226562 103.799 -9.5242
32.592773 103.835 -16.9089
32.958984 103.866 -23.7679
33.325195 103.917 -30.2734
33.691406 103.986 -36.6029
34.057617 104.055 -42.8326
34.423828 104.108 -48.9124
34.790039 104.141 -54.7252
35.156250 104.169 -60.1825
35.522461 104.211 -65.2926
35.888672 104.281 -70.1630
36.254883 104.376 -74.9326
36.621094 104.481 -79.6853
36.987305 104.578 -84.4062
37.353516 104.659 -89.0063
37.719727 104.729 -93.3910
38.085938 104.804 -97.5289
38.452148 104.901 -101.4828
38.818359 105.025 -105.3835
39.184570 105.171 -109.3628
39.550781 105.319 -113.4907
39.916992 105.451 -117.7557
40.283203 105.555 -122.0886
40.649414 105.629 -126.4052
41.015625 105.675 -130.6403
41.381836 105.698 -134.7585
41.748047 105.704 -138.7433
42.114258 105.697 -142.5808
42.480469 105.681 -146.2559
42.846680 105.665 -149.7668
43.212891 105.660 -153.1468
43.579102 105.670 -156.4680
43.945312 105.689 -159.8169
44.311523 105.704 -163.2498
44.677734 105.702 -166.7592
45.043945 105.673 -170.2767
45.410156 105.617 -173.7098
45.776367 105.542 -176.9920
46.142578 105.459 179.8832
46.508789 105.376 176.8649
46.875000 105.293 173.8821
47.241211 105.201 170.8903
47.607422 105.089 167.8939
47.973633 104.949 164.9379
48.339844 104.777 162.0818
48.706055 104.573 159.3826
49.072266 104.339 156.8951
49.438477 104.076 154.6859
49.804688 103.792 152.8346
50.170898 103.503 151.4097
50.537109 103.233 150.4201
50.903320 103.007 149.7739
51.269531 102.838 149.2863
51.635742 102.721 148.7474
52.001953 102.632 148.0109
52.368164 102.543 147.0451
52.734375 102.428 145.9276
53.100586 102.272 144.8067
53.466797 102.075 143.8568
53.833008 101.850 143.2353
54.199219 101.623 143.0359
54.565430 101.426 143.2386
54.931641 101.284 143.6933
55.297852 101.201 144.1744
55.664062 101.159 144.5001
56.030273 101.125 144.6380
56.396484 101.076 144.7172
56.762695 101.010 144.9428
57.128906 100.950 145.4658
57.495117 100.930 146.2811
57.861328 100.974 147.2286
58.227539 101.082 148.1047
58.593750 101.233 148.7946
58.959961 101.409 149.3154
59.326172 101.602 149.7500
59.692383 101.822 150.1456
60.058594 102.082 150.4562
60.424805 102.386 150.5657
60.791016 102.726 150.3598
61.157227 103.083 149.7845
61.523438 103.439 148.8561
61.889648 103.782 147.6323
62.255859 104.103 146.1798
62.622070 104.402 144.5552
62.988281 104.682 142.7988
63.354492 104.945 140.9363
63.720703 105.192 138.9805
64.086914 105.424 136.9370
64.453125 105.639 134.8136
64.819336 105.836 132.6296
65.185547 106.016 130.4150
65.551758 106.183 128.1982
65.917969 106.341 125.9866
66.284180 106.496 123.7568
66.650391 106.650 121.4639
67.016602 106.797 119.0674
67.382812 106.930 116.5585
67.749023 107.042 113.9665
68.115234 107.131 111.3425
68.481445 107.199 108.7299
68.847656 107.253 106.1412
69.213867 107.298 103.5571
69.580078 107.331 100.9461
69.946289 107.350 98.2925
70.312500 107.347 95.6118
70.678711 107.320 92.9448
71.044922 107.270 90.3380
71.411133 107.203 87.8204
71.777344 107.124 85.3940
72.143555 107.038 83.0394
72.509766 106.944 80.7321
72.875977 106.840 78.4592
73.242188 106.723 76.2267
73.608398 106.591 74.0554
73.974609 106.446 71.9708
74.340820 106.290 69.9921
74.707031 106.129 68.1252
75.073242 105.966 66.3615
75.439453 105.802 64.6838
75.805664 105.638 63.0750
76.171875 105.471 61.5265
76.538086 105.301 60.0412
76.904297 105.125 58.6270
77.270508 104.949 57.2859
77.636719 104.775 56.0053
78.002930 104.603 54.7589
78.369141 104.430 53.5215
78.735352 104.250 52.2888
79.101562 104.056 51.0908
79.467773 103.843 49.9886
79.833984 103.616 49.0530
80.200195 103.383 48.3336
80.566406 103.158 47.8330
80.932617 102.953 47.5002
81.298828 102.773 47.2493
81.665039 102.613 46.9968
82.031250 102.463 46.6953
82.397461 102.311 46.3488
82.763672 102.147 46.0042
83.129883 101.967 45.7293
83.496094 101.774 45.5910
83.862305 101.572 45.6416
84.228516 101.366 45.9183
84.594727 101.163 46.4506
84.960938 100.974 47.2671
85.327148 100.808 48.3931
85.693359 100.682 49.8323
86.059570 100.615 51.5379
86.425781 100.624 53.3917
86.791992 100.719 55.2127
87.158203 100.891 56.8049
87.524414 101.119 58.0241
87.890625 101.375 58.8224
88.256836 101.637 59.2479
88.623047 101.889 59.4057
88.989258 102.131 59.4059
89.355469 102.368 59.3218
89.721680 102.611 59.1708
90.087891 102.866 58.9232
90.454102 103.136 58.5265
90.820312 103.417 57.9310
91.186523 103.701 57.1055
91.552734 103.981 56.0419
91.918945 104.246 54.7559
92.285156 104.489 53.2856
92.651367 104.707 51.6866
93.017578 104.899 50.0201
93.383789 105.070 48.3351
93.750000 105.227 46.6537
94.116211 105.376 44.9666
94.482422 105.521 43.2461
94.848633 105.658 41.4678
95.214844 105.783 39.6293
95.581055 105.894 37.7513
95.947266 105.990 35.8647
96.313477 106.075 33.9897
96.679688 106.153 32.1238
97.045898 106.227 30.2437
97.412109 106.296 28.3216
97.778320 106.358 26.3418
98.144531 106.407 24.3095
98.510742 106.440 22.2477
98.876953 106.457 20.1849
99.243164 106.460 18.1438
99.609375 106.452 16.1327
99.975586 106.435 14.1464
100.341797 106.411 12.1725
100.708008 106.377 10.2014
101.074219 106.333 8.2346
101.440430 106.275 6.2894
101.806641 106.202 4.3943
102.172852 106.116 2.5806
102.539062 106.021 0.8697
102.905273 105.923 -0.7331
103.271484 105.826 -2.2387
103.637695 105.734 -3.6672
104.003906 105.647 -5.0399
104.370117 105.568 -6.3769
104.736328 105.498 -7.6997
105.102539 105.435 -9.0352
105.468750 105.377 -10.4119
105.834961 105.321 -11.8505
106.201172 105.260 -13.3518
106.567383 105.188 -14.8929
106.933594 105.103 -16.4362
107.299805 105.008 -17.9451
107.666016 104.906 -19.4008
108.032227 104.802 -20.8075
108.398438 104.700 -22.1860
108.764648 104.598 -23.5577
109.130859 104.492 -24.9314
109.497070 104.379 -26.2968
109.863281 104.259 -27.6311
110.229492 104.134 -28.9105
110.595703 104.006 -30.1226
110.961914 103.880 -31.2728
111.328125 103.759 -32.3827
111.694336 103.645 -33.4804
112.060547 103.533 -34.5873
112.426758 103.421 -35.7090
112.792969 103.307 -36.8346
113.159180 103.189 -37.9438
113.525391 103.070 -39.0197
113.891602 102.952 -40.0586
114.257812 102.838 -41.0717
114.624023 102.728 -42.0779
114.990234 102.621 -43.0927
115.356445 102.514 -44.1198
115.722656 102.407 -45.1520
116.088867 102.299 -46.1795
116.455078 102.193 -47.2000
116.821289 102.089 -48.2220
117.187500 101.987 -49.2603
117.553711 101.886 -50.3242
117.919922 101.781 -51.4077
118.286133 101.673 -52.4900
118.652344 101.561 -53.5460
119.018555 101.451 -54.5623
119.384766 101.349 -55.5489
119.750977 101.258 -56.5392
120.117188 101.179 -57.5773
120.483398 101.108 -58.6995
120.849609 101.041 -59.9234
121.215820 100.973 -61.2479
121.582031 100.902 -62.6636
121.948242 100.825 -64.1626
122.314453 100.743 -65.7428
122.680664 100.652 -67.4035
123.046875 100.550 -69.1388
123.413086 100.437 -70.9352
123.779297 100.313 -72.7762
124.145508 100.178 -74.6505
124.511719 100.036 -76.5586
124.877930 99.890 -78.5142
125.244141 99.739 -80.5391
125.610352 99.584 -82.6581
125.976562 99.422 -84.8936
126.342773 99.249 -87.2638
126.708984 99.063 -89.7794
127.075195 98.856 -92.4386
127.441406 98.627 -95.2250
127.807617 98.372 -98.1106
128.173828 98.094 -101.0677
128.540039 97.797 -104.0867
128.906250 97.488 -107.1893
129.272461 97.170 -110.4277
129.638672 96.842 -113.8665
130.004883 96.496 -117.5567
130.371094 96.126 -121.5156
130.737305 95.726 -125.7292
131.103516 95.296 -130.1749
131.469727 94.847 -134.8535
131.835938 94.388 -139.8145
132.202148 93.930 -145.1553
132.568359 93.477 -150.9933
132.934570 93.028 -157.4221
133.300781 92.583 -164.4762
133.666992 92.147 -172.1172
134.033203 91.737 179.7542
134.399414 91.380 171.2754
134.765625 91.109 162.5978
135.131836 90.954 153.8711
135.498047 90.933 145.2377
135.864258 91.048 136.8336
136.230469 91.288 128.7832
136.596680 91.634 121.1833
136.962891 92.065 114.0806
137.329102 92.563 107.4557
137.695312 93.107 101.2295
138.061523 93.678 95.2954
138.427734 94.248 89.5642
138.793945 94.793 83.9990
139.160156 95.293 78.6226
139.526367 95.739 73.4999
139.892578 96.131 68.7031
140.258789 96.475 64.2786
140.625000 96.786 60.2275
140.991211 97.073 56.5083
141.357422 97.342 53.0603
141.723633 97.594 49.8314
142.089844 97.829 46.7932
142.456055 98.045 43.9387
142.822266 98.246 41.2643
143.188477 98.434 38.7552
143.554688 98.614 36.3843
143.920898 98.783 34.1263
144.287109 98.940 31.9741
144.653320 99.085 29.9430
145.019531 99.219 28.0565
145.385742 99.350 26.3232
145.751953 99.486 24.7181
146.118164 99.631 23.1863
146.484375 99.784 21.6666
146.850586 99.938 20.1227
147.216797 100.084 18.5579
147.583008 100.220 17.0072
147.949219 100.345 15.5110
148.315430 100.467 14.0879
148.681641 100.591 12.7231
149.047852 100.719 11.3776
149.414062 100.850 10.0103
149.780273 100.978 8.6024
150.146484 101.097 7.1636
150.512695 101.206 5.7224
150.878906 101.304 4.3080
151.245117 101.397 2.9343
151.611328 101.485 1.5963
151.977539 101.571 0.2789
152.343750 101.654 -1.0287
152.709961 101.731 -2.3232
153.076172 101.803 -3.5892
153.442383 101.870 -4.8091
153.808594 101.935 -5.9767
154.174805 102.003 -7.1014
154.541016 102.076 -8.2040
154.907227 102.152 -9.3044
155.273438 102.231 -10.4158
155.639648 102.313 -11.5461
156.005859 102.398 -12.7080
156.372070 102.484 -13.9246
156.738281 102.570 -15.2245
157.104492 102.647 -16.6246
157.470703 102.707 -18.1141
157.836914 102.743 -19.6483
158.203125 102.751 -21.1595
158.569336 102.736 -22.5797
158.935547 102.703 -23.8617
159.301758 102.662 -24.9911
159.667969 102.620 -25.9812
160.034180 102.581 -26.8572
160.400391 102.547 -27.6410
160.766602 102.518 -28.3428
161.132812 102.495 -28.9640
161.499023 102.479 -29.5038
161.865234 102.473 -29.9640
162.231445 102.482 -30.3531
162.597656 102.509 -30.6909
162.963867 102.560 -31.0138
163.330078 102.635 -31.3762
163.696289 102.733 -31.8422
164.062500 102.847 -32.4680
164.428711 102.968 -33.2837
164.794922 103.084 -34.2847
165.161133 103.187 -35.4376
165.527344 103.273 -36.6960
165.893555 103.340 -38.0164
166.259766 103.391 -39.3674
166.625977 103.428 -40.7328
166.992188 103.453 -42.1067
167.358398 103.465 -43.4888
167.724609 103.466 -44.8800
168.090820 103.454 -46.2783
168.457031 103.429 -47.6771
168.823242 103.388 -49.0643
169.189453 103.332 -50.4259
169.555664 103.263 -51.7507
169.921875 103.180 -53.0348
170.288086 103.083 -54.2794
170.654297 102.971 -55.4817
171.020508 102.839 -56.6237
171.386719 102.686 -57.6663
171.752930 102.513 -58.5557
172.119141 102.326 -59.2419
172.485352 102.135 -59.7001
172.851562 101.950 -59.9429
173.217773 101.776 -60.0143
173.583984 101.617 -59.9653
173.950195 101.466 -59.8268
174.316406 101.320 -59.5936
174.682617 101.177 -59.2308
175.048828 101.039 -58.6945
175.415039 100.914 -57.9552
175.781250 100.813 -57.0143
176.147461 100.745 -55.9062
176.513672 100.716 -54.6886
176.879883 100.729 -53.4277
177.246094 100.784 -52.1869
177.612305 100.875 -51.0190
177.978516 100.999 -49.9644
178.344727 101.149 -49.0485
178.710938 101.319 -48.2809
179.077148 101.503 -47.6558
179.443359 101.697 -47.1570
179.809570 101.900 -46.7659
180.175781 102.112 -46.4705
180.541992 102.336 -46.2706
180.908203 102.571 -46.1771
181.274414 102.817 -46.2057
181.640625 103.073 -46.3705
182.006836 103.337 -46.6796
182.373047 103.605 -47.1360
182.739258 103.878 -47.7413
183.105469 104.154 -48.4998
183.471680 104.432 -49.4202
183.837891 104.711 -50.5154
184.204102 104.988 -51.8005
184.570312 105.259 -53.2893
184.936523 105.520 -54.9918
185.302734 105.766 -56.9113
185.668945 105.989 -59.0405
186.035156 106.184 -61.3613
186.401367 106.344 -63.8428
186.767578 106.466 -66.4434
187.133789 106.545 -69.1141
187.500000 106.582 -71.8027
187.866211 106.577 -74.4573
188.232422 106.534 -77.0309
188.598633 106.456 -79.4844
188.964844 106.349 -81.7892
189.331055 106.220 -83.9283
189.697266 106.075 -85.8955
190.063477 105.918 -87.6937
190.429688 105.754 -89.3320
190.795898 105.588 -90.8232
191.162109 105.421 -92.1821
191.528320 105.256 -93.4242
191.894531 105.095 -94.5660
192.260742 104.939 -95.6248
192.626953 104.788 -96.6180
192.993164 104.642 -97.5632
193.359375 104.502 -98.4760
193.725586 104.366 -99.3689
194.091797 104.233 -100.2510
194.458008 104.101 -101.1279
194.824219 103.971 -102.0045
195.190430 103.842 -102.8868
195.556641 103.712 -103.7841
195.922852 103.582 -104.7080
196.289062 103.449 -105.6720
196.655273 103.310 -106.6871
197.021484 103.161 -107.7603
197.387695 102.999 -108.8915
197.753906 102.819 -110.0730
198.120117 102.615 -111.2896
198.486328 102.383 -112.5168
198.852539 102.120 -113.7230
199.218750 101.821 -114.8684
199.584961 101.486 -115.9061
199.951172 101.113 -116.7826
200.317383 100.703 -117.4381
200.683594 100.259 -117.8103
201.049805 99.789 -117.8400
201.416016 99.302 -117.4810
201.782227 98.808 -116.7098
202.148438 98.318 -115.5302
202.514648 97.842 -113.9664
202.880859 97.385 -112.0493
203.247070 96.947 -109.7993
203.613281 96.529 -107.2167
203.979492 96.131 -104.2787
204.345703 95.757 -100.9407
204.711914 95.414 -97.1368
205.078125 95.116 -92.7902
205.444336 94.890 -87.8411
205.810547 94.772 -82.3027
206.176758 94.805 -76.3218
206.542969 95.021 -70.2019
206.909180 95.429 -64.3508
207.275391 96.010 -59.1719
207.641602 96.719 -54.9601
208.007812 97.502 -51.8567
208.374023 98.307 -49.8568
208.740234 99.090 -48.8459
209.106445 99.820 -48.6454
209.472656 100.481 -49.0530
209.838867 101.068 -49.8765
210.205078 101.582 -50.9554
210.571289 102.033 -52.1711
210.937500 102.429 -53.4449
211.303711 102.782 -54.7297
211.669922 103.098 -55.9990
212.036133 103.385 -57.2369
212.402344 103.648 -58.4358
212.768555 103.891 -59.5951
213.134766 104.120 -60.7214
213.500977 104.337 -61.8270
213.867188 104.544 -62.9244
214.233398 104.739 -64.0242
214.599609 104.924 -65.1315
214.965820 105.097 -66.2460
215.332031 105.256 -67.3629
215.698242 105.401 -68.4719
216.064453 105.532 -69.5575
216.430664 105.647 -70.6001
216.796875 105.750 -71.5786
217.163086 105.843 -72.4762
217.529297 105.931 -73.2839
217.895508 106.017 -74.0042
218.261719 106.106 -74.6493
218.627930 106.198 -75.2378
218.994141 106.296 -75.7882
219.360352 106.398 -76.3146
219.726562 106.504 -76.8247
220.092773 106.612 -77.3208
220.458984 106.723 -77.8009
220.825195 106.835 -78.2606
221.191406 106.950 -78.6935
221.557617 107.068 -79.0923
221.923828 107.193 -79.4526
222.290039 107.326 -79.7771
222.656250 107.472 -80.0790
223.022461 107.631 -80.3811
223.388672 107.806 -80.7103
223.754883 107.993 -81.0897
224.121094 108.193 -81.5348
224.487305 108.404 -82.0562
224.853516 108.625 -82.6681
225.219727 108.857 -83.3949
225.585938 109.096 -84.2710
225.952148 109.336 -85.3291
226.318359 109.569 -86.5854
226.684570 109.785 -88.0260
227.050781 109.972 -89.6040
227.416992 110.127 -91.2471
227.783203 110.247 -92.8711
228.149414 110.339 -94.3962
228.515625 110.411 -95.7622
228.881836 110.476 -96.9377
229.248047 110.546 -97.9277
229.614258 110.634 -98.7708
229.980469 110.747 -99.5321
230.346680 110.889 -100.2891
230.712891 111.060 -101.1173
231.079102 111.253 -102.0811
231.445312 111.464 -103.2297
231.811523 111.683 -104.5996
232.177734 111.901 -106.2142
232.543945 112.108 -108.0826
232.910156 112.293 -110.1927
233.276367 112.446 -112.5070
233.642578 112.556 -114.9630
234.008789 112.619 -117.4819
234.375000 112.636 -119.9803
234.741211 112.609 -122.3851
235.107422 112.544 -124.6421
235.473633 112.450 -126.7181
235.839844 112.330 -128.5935
236.206055 112.190 -130.2512
236.572266 112.034 -131.6672
236.938477 111.866 -132.8081
237.304688 111.695 -133.6377
237.670898 111.532 -134.1294
238.037109 111.390 -134.2784
238.403320 111.284 -134.1118
238.769531 111.229 -133.6907
239.135742 111.237 -133.1083
239.501953 111.315 -132.4845
239.868164 111.463 -131.9543
240.234375 111.676 -131.6519
240.600586 111.941 -131.6913
240.966797 112.242 -132.1511
241.333008 112.558 -133.0652
241.699219 112.871 -134.4260
242.065430 113.165 -136.1932
242.431641 113.429 -138.3062
242.797852 113.653 -140.6937
243.164062 113.833 -143.2838
243.530273 113.969 -146.0082
243.896484 114.059 -148.8065
244.262695 114.106 -151.6282
244.628906 114.114 -154.4332
244.995117 114.085 -157.1918
245.361328 114.022 -159.8817
245.727539 113.928 -162.4854
246.093750 113.805 -164.9862
246.459961 113.653 -167.3652
246.826172 113.475 -169.5988
247.192383 113.272 -171.6575
247.558594 113.047 -173.5079
247.924805 112.805 -175.1155
248.291016 112.554 -176.4500
248.657227 112.303 -177.4935
249.023438 112.062 -178.2479
249.389648 111.841 -178.7399
249.755859 111.649 -179.0205
250.122070 111.491 -179.1559
250.488281 111.369 -179.2156
250.854492 111.279 -179.2587
251.220703 111.217 -179.3280
251.586914 111.179 -179.4514
251.953125 111.160 -179.6462
252.319336 111.156 -179.9246
252.685547 111.162 179.7076
253.051758 111.176 179.2518
253.417969 111.193 178.7188
253.784180 111.212 178.1255
254.150391 111.232 177.4901
254.516602 111.256 176.8241
254.882812 111.286 176.1282
255.249023 111.325 175.3932
255.615234 111.373 174.6044
255.981445 111.432 173.7462
256.347656 111.501 172.8048
256.713867 111.580 171.7660
257.080078 111.671 170.6110
257.446289 111.773 169.3127
257.812500 111.885 167.8373
258.178711 112.005 166.1470
258.544922 112.125 164.2067
258.911133 112.240 161.9890
259.277344 112.341 159.4767
259.643555 112.417 156.6636
260.009766 112.459 153.5558
260.375977 112.456 150.1732
260.742188 112.396 146.5524
261.108398 112.266 142.7495
261.474609 112.058 138.8417
261.840820 111.762 134.9268
262.207031 111.375 131.1200
262.573242 110.896 127.5483
262.939453 110.329 124.3435
263.305664 109.683 121.6311
263.671875 108.974 119.5216
264.038086 108.218 118.1003
264.404297 107.437 117.4209
264.770508 106.653 117.5026
265.136719 105.887 118.3334
265.502930 105.160 119.8745
265.869141 104.488 122.0645
266.235352 103.888 124.8224
266.601562 103.373 128.0521
266.967773 102.951 131.6483
267.333984 102.629 135.5031
267.700195 102.412 139.5065
268.066406 102.302 143.5430
268.432617 102.299 147.4872
268.798828 102.397 151.2095
269.165039 102.586 154.5898
269.531250 102.851 157.5320
269.897461 103.176 159.9698
270.263672 103.544 161.8655
270.629883 103.938 163.2047
270.996094 104.340 163.9954
271.362305 104.737 164.2657
271.728516 105.116 164.0620
272.094727 105.467 163.4409
272.460938 105.782 162.4618
272.827148 106.059 161.1785
273.193359 106.291 159.6381
273.559570 106.476 157.8839
273.925781 106.610 155.9626
274.291992 106.686 153.9312
274.658203 106.703 151.8615
275.024414 106.659 149.8387
275.390625 106.558 147.9561
275.756836 106.406 146.3031
276.123047 106.214 144.9547
276.489258 105.999 143.9573
276.855469 105.778 143.3198
277.221680 105.565 143.0098
277.587891 105.374 142.9590
277.954102 105.211 143.0780
278.320312 105.075 143.2772
278.686523 104.960 143.4874
279.052734 104.858 143.6744
279.418945 104.758 143.8429
279.785156 104.654 144.0306
280.151367 104.545 144.2927
280.517578 104.433 144.6832
280.883789 104.328 145.2367
281.250000 104.238 145.9562
281.616211 104.173 146.8121
281.982422 104.141 147.7515
282.348633 104.143 148.7097
282.714844 104.180 149.6227
283.081055 104.248 150.4313
283.447266 104.341 151.0844
283.813477 104.453 151.5414
284.179688 104.573 151.7777
284.545898 104.691 151.7900
284.912109 104.796 151.5989
285.278320 104.879 151.2454
285.644531 104.934 150.7875
286.010742 104.956 150.2939
286.376953 104.946 149.8391
286.743164 104.905 149.4995
287.109375 104.839 149.3477
287.475586 104.759 149.4423
287.841797 104.678 149.8180
288.208008 104.610 150.4749
288.574219 104.569 151.3773
288.940430 104.565 152.4630
289.306641 104.603 153.6593
289.672852 104.685 154.8978
290.039062 104.810 156.1193
290.405273 104.979 157.2699
290.771484 105.188 158.2964
291.137695 105.435 159.1449
291.503906 105.713 159.7672
291.870117 106.014 160.1282
292.236328 106.331 160.2092
292.602539 106.656 160.0048
292.968750 106.982 159.5182
293.334961 107.303 158.7566
293.701172 107.612 157.7312
294.067383 107.904 156.4581
294.433594 108.175 154.9594
294.799805 108.420 153.2606
295.166016 108.635 151.3890
295.532227 108.817 149.3705
295.898438 108.964 147.2311
296.264648 109.073 144.9995
296.630859 109.139 142.7131
296.997070 109.160 140.4202
297.363281 109.135 138.1790
297.729492 109.065 136.0546
298.095703 108.953 134.1128
298.461914 108.807 132.4150
298.828125 108.634 131.0121
299.194336 108.447 129.9393
299.560547 108.259 129.2106
299.926758 108.085 128.8107
