* Measurement data measured by REW V5.20.8
* Source: ASIO hdspfire, Analog 1 (1)
* Format: 4M Log Swept Sine, 1 sweep at -12.0 dBFS with no timing reference
* Dated: 13 juin 2022 13:41:35
* REW Settings:
*  C-weighting compensation: Off
*  Target level: 75.0 dB
* Note: ; 
* Measurement: off_0x1400_3_0 juin 13
* Smoothing: None
* Frequency Step: 0.36621094 Hz
* Start Frequency: 0.36621094 Hz
*
* Freq(Hz) SPL(dB) Phase(degrees)
0.366211 25.419 -159.7618
0.732422 26.642 -146.1639
1.098633 27.431 -138.6892
1.464844 27.226 -132.1874
1.831055 26.332 -119.2999
2.197266 26.415 -99.4869
2.563477 27.519 -86.9897
2.929688 27.101 -82.4769
3.295898 22.972 -61.4782
3.662109 26.584 11.0790
4.028320 34.282 18.6830
4.394531 38.541 9.9292
4.760742 40.746 -0.8957
5.126953 41.499 -9.1879
5.493164 41.365 -10.7359
5.859375 41.566 -3.5379
6.225586 43.155 4.1453
6.591797 45.234 4.2352
6.958008 46.848 -1.0113
7.324219 47.923 -7.5850
7.690430 48.828 -13.7139
8.056641 49.950 -20.6264
8.422852 51.300 -30.9565
8.789062 52.576 -45.6321
9.155273 53.502 -63.3831
9.521484 53.918 -81.7683
9.887695 53.748 -97.3633
10.253906 53.193 -105.1966
10.620117 53.439 -101.6381
10.986328 55.786 -96.7190
11.352539 58.897 -101.3076
11.718750 61.405 -112.4616
12.084961 62.962 -125.4721
12.451172 63.535 -136.7172
12.817383 63.282 -141.9322
13.183594 63.116 -136.2124
13.549805 64.841 -124.8969
13.916016 67.966 -122.6795
14.282227 70.824 -129.9281
14.648438 72.909 -141.8831
15.014648 74.192 -155.6010
15.380859 74.705 -169.2863
15.747070 74.458 178.7280
16.113281 73.489 170.9007
16.479492 72.151 171.2808
16.845703 71.763 -178.3176
17.211914 73.385 -169.0258
17.578125 75.662 -169.8212
17.944336 77.447 -177.6497
18.310547 78.474 171.4494
18.676758 78.710 160.0038
19.042969 78.138 150.1308
19.409180 76.749 144.7291
19.775391 74.835 148.9010
20.141602 73.936 166.6826
20.507812 75.653 -174.9041
20.874023 78.362 -167.3561
21.240234 80.846 -166.5317
21.606445 83.018 -168.6576
21.972656 84.971 -172.5053
22.338867 86.724 -177.7330
22.705078 88.243 176.0601
23.071289 89.515 169.5320
23.437500 90.585 163.4273
23.803711 91.546 158.2737
24.169922 92.552 154.0399
24.536133 93.712 150.0092
24.902344 95.027 145.1804
25.268555 96.399 138.9108
25.634766 97.714 131.1422
26.000977 98.892 122.1844
26.367188 99.896 112.4472
26.733398 100.717 102.3025
27.099609 101.360 92.0587
27.465820 101.837 81.9846
27.832031 102.169 72.3386
28.198242 102.389 63.3691
28.564453 102.550 55.2552
28.930664 102.724 47.9902
29.296875 102.981 41.2714
29.663086 103.348 34.5412
30.029297 103.794 27.2335
30.395508 104.244 19.0504
30.761719 104.615 10.0516
31.127930 104.848 0.5626
31.494141 104.922 -8.9697
31.860352 104.849 -18.0995
32.226562 104.674 -26.4880
32.592773 104.451 -33.9966
32.958984 104.237 -40.7305
33.325195 104.061 -46.9675
33.691406 103.916 -52.9725
34.057617 103.769 -58.8284
34.423828 103.597 -64.4058
34.790039 103.401 -69.4818
35.156250 103.217 -73.9197
35.522461 103.084 -77.8058
35.888672 103.024 -81.4258
36.254883 103.014 -85.0679
36.621094 103.009 -88.8055
36.987305 102.974 -92.4436
37.353516 102.910 -95.6552
37.719727 102.868 -98.2265
38.085938 102.915 -100.2849
38.452148 103.089 -102.3218
38.818359 103.362 -104.9094
39.184570 103.652 -108.3361
39.550781 103.871 -112.4768
39.916992 103.967 -116.9144
40.283203 103.932 -121.1326
40.649414 103.803 -124.6895
41.015625 103.648 -127.3621
41.381836 103.540 -129.2365
41.748047 103.526 -130.6658
42.114258 103.608 -132.0760
42.480469 103.753 -133.7528
42.846680 103.917 -135.7653
43.212891 104.070 -138.0263
43.579102 104.193 -140.3864
43.945312 104.282 -142.6963
44.311523 104.341 -144.8304
44.677734 104.385 -146.6965
45.043945 104.431 -148.2455
45.410156 104.497 -149.4792
45.776367 104.599 -150.4473
46.142578 104.749 -151.2299
46.508789 104.952 -151.9213
46.875000 105.211 -152.6248
47.241211 105.522 -153.4476
47.607422 105.876 -154.4810
47.973633 106.256 -155.7667
48.339844 106.650 -157.2802
48.706055 107.053 -158.9574
49.072266 107.472 -160.7596
49.438477 107.922 -162.7362
49.804688 108.407 -165.0345
50.170898 108.914 -167.8358
50.537109 109.413 -171.2589
50.903320 109.866 -175.2993
51.269531 110.240 -179.8326
51.635742 110.516 175.3378
52.001953 110.688 170.4255
52.368164 110.763 165.6188
52.734375 110.755 161.0590
53.100586 110.684 156.8340
53.466797 110.569 152.9841
53.833008 110.425 149.5085
54.199219 110.270 146.3731
54.565430 110.111 143.5194
54.931641 109.953 140.8848
55.297852 109.793 138.4291
55.664062 109.629 136.1567
56.030273 109.462 134.1116
56.396484 109.300 132.3404
56.762695 109.162 130.8412
57.128906 109.063 129.5311
57.495117 109.011 128.2653
57.861328 108.997 126.9043
58.227539 109.006 125.3786
58.593750 109.017 123.7061
58.959961 109.023 121.9559
59.326172 109.021 120.1939
59.692383 109.016 118.4484
60.058594 109.013 116.7133
60.424805 109.012 114.9755
60.791016 109.013 113.2385
61.157227 109.014 111.5222
61.523438 109.017 109.8420
61.889648 109.027 108.1915
62.255859 109.044 106.5450
62.622070 109.067 104.8783
62.988281 109.096 103.1844
63.354492 109.130 101.4690
63.720703 109.173 99.7285
64.086914 109.227 97.9336
64.453125 109.289 96.0362
64.819336 109.353 93.9997
65.185547 109.411 91.8255
65.551758 109.455 89.5551
65.917969 109.484 87.2419
66.284180 109.503 84.9147
66.650391 109.519 82.5576
67.016602 109.532 80.1234
67.382812 109.536 77.5699
67.749023 109.520 74.8941
68.115234 109.476 72.1395
68.481445 109.399 69.3755
68.847656 109.293 66.6646
69.213867 109.163 64.0387
69.580078 109.015 61.4990
69.946289 108.849 59.0355
70.312500 108.665 56.6520
70.678711 108.459 54.3754
71.044922 108.235 52.2471
71.411133 107.998 50.2991
71.777344 107.756 48.5359
72.143555 107.516 46.9335
72.509766 107.278 45.4581
72.875977 107.041 44.0896
73.242188 106.803 42.8339
73.608398 106.565 41.7136
73.974609 106.330 40.7461
74.340820 106.105 39.9254
74.707031 105.895 39.2224
75.073242 105.699 38.6058
75.439453 105.516 38.0642
75.805664 105.343 37.6109
76.171875 105.185 37.2614
76.538086 105.049 37.0013
76.904297 104.940 36.7692
77.270508 104.859 36.4746
77.636719 104.796 36.0439
78.002930 104.735 35.4615
78.369141 104.665 34.7770
78.735352 104.580 34.0764
79.101562 104.482 33.4385
79.467773 104.381 32.9039
79.833984 104.284 32.4689
80.200195 104.197 32.1024
80.566406 104.121 31.7703
80.932617 104.054 31.4467
81.298828 103.996 31.1158
81.665039 103.942 30.7705
82.031250 103.887 30.4200
82.397461 103.829 30.0967
82.763672 103.768 29.8535
83.129883 103.710 29.7401
83.496094 103.666 29.7740
83.862305 103.649 29.9225
84.228516 103.663 30.1153
84.594727 103.711 30.2782
84.960938 103.786 30.3624
85.327148 103.887 30.3458
85.693359 104.010 30.2116
86.059570 104.154 29.9280
86.425781 104.316 29.4508
86.791992 104.488 28.7455
87.158203 104.658 27.8094
87.524414 104.817 26.6754
87.890625 104.961 25.3928
88.256836 105.090 24.0054
88.623047 105.205 22.5378
88.989258 105.309 20.9991
89.355469 105.400 19.3952
89.721680 105.478 17.7374
90.087891 105.545 16.0391
90.454102 105.602 14.3061
90.820312 105.650 12.5306
91.186523 105.689 10.6968
91.552734 105.716 8.7960
91.918945 105.724 6.8401
92.285156 105.711 4.8629
92.651367 105.678 2.9072
93.017578 105.629 1.0056
93.383789 105.569 -0.8324
93.750000 105.505 -2.6212
94.116211 105.438 -4.3868
94.482422 105.367 -6.1507
94.848633 105.290 -7.9203
95.214844 105.203 -9.6904
95.581055 105.107 -11.4506
95.947266 105.000 -13.1917
96.313477 104.884 -14.9092
96.679688 104.757 -16.5999
97.045898 104.622 -18.2604
97.412109 104.478 -19.8856
97.778320 104.325 -21.4711
98.144531 104.165 -23.0150
98.510742 103.998 -24.5180
98.876953 103.825 -25.9818
99.243164 103.645 -27.4081
99.609375 103.457 -28.7980
99.975586 103.262 -30.1516
100.341797 103.056 -31.4641
100.708008 102.839 -32.7221
101.074219 102.611 -33.8995
101.440430 102.371 -34.9609
101.806641 102.124 -35.8719
102.172852 101.877 -36.6141
102.539062 101.639 -37.1950
102.905273 101.415 -37.6465
103.271484 101.208 -38.0137
103.637695 101.020 -38.3402
104.003906 100.849 -38.6633
104.370117 100.695 -39.0166
104.736328 100.552 -39.4346
105.102539 100.417 -39.9473
105.468750 100.279 -40.5662
105.834961 100.131 -41.2702
106.201172 99.966 -42.0091
106.567383 99.786 -42.7240
106.933594 99.594 -43.3763
107.299805 99.398 -43.9652
107.666016 99.200 -44.5204
108.032227 98.998 -45.0718
108.398438 98.786 -45.6176
108.764648 98.558 -46.1152
109.130859 98.315 -46.5012
109.497070 98.063 -46.7246
109.863281 97.813 -46.7718
110.229492 97.574 -46.6672
110.595703 97.351 -46.4556
110.961914 97.146 -46.1840
111.328125 96.959 -45.8997
111.694336 96.789 -45.6559
112.060547 96.629 -45.5047
112.426758 96.465 -45.4697
112.792969 96.283 -45.5148
113.159180 96.075 -45.5424
113.525391 95.843 -45.4305
113.891602 95.602 -45.0968
114.257812 95.370 -44.5458
114.624023 95.158 -43.8622
114.990234 94.966 -43.1456
115.356445 94.781 -42.4388
115.722656 94.597 -41.7110
116.088867 94.412 -40.9047
116.455078 94.234 -40.0026
116.821289 94.071 -39.0494
117.187500 93.918 -38.1071
117.553711 93.763 -37.1877
117.919922 93.599 -36.2292
118.286133 93.429 -35.1413
118.652344 93.263 -33.8821
119.018555 93.115 -32.4919
119.384766 92.987 -31.0487
119.750977 92.870 -29.5821
120.117188 92.757 -28.0372
120.483398 92.657 -26.3339
120.849609 92.591 -24.4736
121.215820 92.575 -22.5937
121.582031 92.604 -20.8930
121.948242 92.649 -19.4850
122.314453 92.678 -18.3112
122.680664 92.679 -17.1903
123.046875 92.662 -15.9525
123.413086 92.650 -14.5599
123.779297 92.662 -13.1221
124.145508 92.690 -11.7911
124.511719 92.709 -10.6219
124.877930 92.695 -9.5166
125.244141 92.640 -8.2772
125.610352 92.556 -6.7148
125.976562 92.469 -4.7340
126.342773 92.405 -2.3455
126.708984 92.381 0.3879
127.075195 92.405 3.4122
127.441406 92.490 6.6885
127.807617 92.650 10.1469
128.173828 92.898 13.6517
128.540039 93.235 17.0298
128.906250 93.648 20.1399
129.272461 94.120 22.9146
129.638672 94.640 25.3396
130.004883 95.201 27.4037
130.371094 95.799 29.0693
130.737305 96.424 30.2862
131.103516 97.062 31.0242
131.469727 97.698 31.2928
131.835938 98.320 31.1337
132.202148 98.920 30.5993
132.568359 99.493 29.7371
132.934570 100.033 28.5892
133.300781 100.536 27.2039
133.666992 100.998 25.6444
134.033203 101.420 23.9850
134.399414 101.805 22.2947
134.765625 102.162 20.6166
135.131836 102.501 18.9568
135.498047 102.827 17.2916
135.864258 103.142 15.5894
136.230469 103.445 13.8336
136.596680 103.731 12.0312
136.962891 104.001 10.2022
137.329102 104.257 8.3596
137.695312 104.504 6.4964
138.061523 104.740 4.5903
138.427734 104.964 2.6225
138.793945 105.170 0.5977
139.160156 105.355 -1.4515
139.526367 105.519 -3.4800
139.892578 105.667 -5.4553
140.258789 105.807 -7.3769
140.625000 105.943 -9.2759
140.991211 106.073 -11.1932
141.357422 106.193 -13.1517
141.723633 106.296 -15.1392
142.089844 106.379 -17.1143
142.456055 106.442 -19.0283
142.822266 106.491 -20.8500
143.188477 106.534 -22.5777
143.554688 106.575 -24.2339
143.920898 106.614 -25.8484
144.287109 106.652 -27.4410
144.653320 106.684 -29.0161
145.019531 106.711 -30.5675
145.385742 106.731 -32.0874
145.751953 106.745 -33.5705
146.118164 106.753 -35.0110
146.484375 106.755 -36.3984
146.850586 106.752 -37.7172
147.216797 106.746 -38.9530
147.583008 106.741 -40.1027
147.949219 106.742 -41.1775
148.315430 106.751 -42.2001
148.681641 106.768 -43.1932
149.047852 106.792 -44.1729
149.414062 106.822 -45.1472
149.780273 106.858 -46.1227
150.146484 106.900 -47.1097
150.512695 106.946 -48.1215
150.878906 106.995 -49.1666
151.245117 107.044 -50.2418
151.611328 107.090 -51.3312
151.977539 107.134 -52.4147
152.343750 107.179 -53.4791
152.709961 107.228 -54.5274
153.076172 107.284 -55.5770
153.442383 107.347 -56.6519
153.808594 107.416 -57.7735
154.174805 107.489 -58.9551
154.541016 107.563 -60.2028
154.907227 107.635 -61.5197
155.273438 107.705 -62.9091
155.639648 107.769 -64.3738
156.005859 107.826 -65.9132
156.372070 107.871 -67.5204
156.738281 107.901 -69.1802
157.104492 107.914 -70.8692
157.470703 107.909 -72.5580
157.836914 107.886 -74.2158
158.203125 107.847 -75.8151
158.569336 107.797 -77.3387
158.935547 107.739 -78.7825
159.301758 107.676 -80.1539
159.667969 107.609 -81.4647
160.034180 107.537 -82.7210
160.400391 107.460 -83.9166
160.766602 107.376 -85.0346
161.132812 107.289 -86.0543
161.499023 107.201 -86.9615
161.865234 107.118 -87.7545
162.231445 107.043 -88.4434
162.597656 106.980 -89.0450
162.963867 106.931 -89.5783
163.330078 106.898 -90.0641
163.696289 106.881 -90.5269
164.062500 106.883 -90.9937
164.428711 106.900 -91.4900
164.794922 106.930 -92.0329
165.161133 106.972 -92.6293
165.527344 107.023 -93.2797
165.893555 107.084 -93.9880
166.259766 107.156 -94.7681
166.625977 107.237 -95.6414
166.992188 107.324 -96.6284
167.358398 107.413 -97.7385
167.724609 107.500 -98.9671
168.090820 107.583 -100.3013
168.457031 107.660 -101.7314
168.823242 107.732 -103.2581
169.189453 107.798 -104.8920
169.555664 107.854 -106.6451
169.921875 107.896 -108.5200
170.288086 107.918 -110.5032
170.654297 107.916 -112.5667
171.020508 107.886 -114.6741
171.386719 107.830 -116.7901
171.752930 107.746 -118.8843
172.119141 107.637 -120.9330
172.485352 107.503 -122.9149
172.851562 107.346 -124.8074
173.217773 107.165 -126.5828
173.583984 106.964 -128.2085
173.950195 106.746 -129.6514
174.316406 106.517 -130.8821
174.682617 106.285 -131.8842
175.048828 106.059 -132.6597
175.415039 105.848 -133.2322
175.781250 105.659 -133.6458
176.147461 105.495 -133.9565
176.513672 105.357 -134.2224
176.879883 105.243 -134.4932
177.246094 105.149 -134.8059
177.612305 105.068 -135.1833
177.978516 104.996 -135.6365
178.344727 104.929 -136.1674
178.710938 104.861 -136.7708
179.077148 104.789 -137.4346
179.443359 104.709 -138.1412
179.809570 104.620 -138.8680
180.175781 104.519 -139.5892
180.541992 104.405 -140.2766
180.908203 104.279 -140.8999
181.274414 104.141 -141.4258
181.640625 103.994 -141.8174
182.006836 103.843 -142.0349
182.373047 103.693 -142.0417
182.739258 103.556 -141.8132
183.105469 103.442 -141.3488
183.471680 103.367 -140.6794
183.837891 103.340 -139.8694
184.204102 103.371 -139.0083
184.570312 103.461 -138.1985
184.936523 103.611 -137.5457
185.302734 103.813 -137.1505
185.668945 104.059 -137.1033
186.035156 104.333 -137.4731
186.401367 104.620 -138.2979
186.767578 104.902 -139.5762
187.133789 105.163 -141.2715
187.500000 105.391 -143.3215
187.866211 105.579 -145.6541
188.232422 105.723 -148.1981
188.598633 105.822 -150.8920
188.964844 105.877 -153.6837
189.331055 105.889 -156.5298
189.697266 105.860 -159.3928
190.063477 105.792 -162.2410
190.429688 105.689 -165.0486
190.795898 105.552 -167.7966
191.162109 105.385 -170.4709
191.528320 105.189 -173.0579
191.894531 104.966 -175.5406
192.260742 104.717 -177.8984
192.626953 104.446 179.8906
192.993164 104.156 177.8448
193.359375 103.854 175.9727
193.725586 103.545 174.2711
194.091797 103.235 172.7258
194.458008 102.928 171.3151
194.824219 102.628 170.0110
195.190430 102.336 168.7800
195.556641 102.054 167.5815
195.922852 101.781 166.3704
196.289062 101.514 165.1008
196.655273 101.247 163.7354
197.021484 100.972 162.2501
197.387695 100.680 160.6392
197.753906 100.363 158.9128
198.120117 100.012 157.0952
198.486328 99.621 155.2188
198.852539 99.183 153.3213
199.218750 98.692 151.4449
199.584961 98.144 149.6357
199.951172 97.533 147.9484
200.317383 96.851 146.4501
200.683594 96.094 145.2258
201.049805 95.255 144.3800
201.416016 94.332 144.0393
201.782227 93.319 144.3560
202.148438 92.216 145.5240
202.514648 91.021 147.8162
202.880859 89.743 151.6440
203.247070 88.421 157.6174
203.613281 87.169 166.4819
203.979492 86.230 178.6306
204.345703 85.925 -166.9554
204.711914 86.389 -152.9688
205.078125 87.410 -141.7964
205.444336 88.668 -134.0134
205.810547 89.953 -129.0632
206.176758 91.170 -126.2091
206.542969 92.287 -124.8782
206.909180 93.300 -124.6821
207.275391 94.210 -125.3629
207.641602 95.020 -126.7434
208.007812 95.733 -128.6910
208.374023 96.349 -131.0966
208.740234 96.868 -133.8604
209.106445 97.292 -136.8877
209.472656 97.622 -140.0879
209.838867 97.860 -143.3765
210.205078 98.011 -146.6750
210.571289 98.079 -149.9137
210.937500 98.069 -153.0280
211.303711 97.988 -155.9580
211.669922 97.842 -158.6484
212.036133 97.637 -161.0493
212.402344 97.382 -163.1184
212.768555 97.085 -164.8230
213.134766 96.755 -166.1375
213.500977 96.396 -167.0371
213.867188 96.017 -167.4875
214.233398 95.624 -167.4375
214.599609 95.230 -166.8213
214.965820 94.855 -165.5778
215.332031 94.527 -163.6873
215.698242 94.279 -161.2161
216.064453 94.143 -158.3400
216.430664 94.133 -155.3223
216.796875 94.247 -152.4431
217.163086 94.465 -149.9271
217.529297 94.760 -147.9076
217.895508 95.104 -146.4365
218.261719 95.475 -145.5125
218.627930 95.853 -145.1040
218.994141 96.225 -145.1627
219.360352 96.579 -145.6312
219.726562 96.908 -146.4504
220.092773 97.206 -147.5653
220.458984 97.471 -148.9257
220.825195 97.699 -150.4817
221.191406 97.887 -152.1794
221.557617 98.037 -153.9609
221.923828 98.151 -155.7740
222.290039 98.235 -157.5842
222.656250 98.294 -159.3815
223.022461 98.332 -161.1741
223.388672 98.348 -162.9685
223.754883 98.339 -164.7493
224.121094 98.303 -166.4707
224.487305 98.246 -168.0718
224.853516 98.179 -169.5073
225.219727 98.116 -170.7791
225.585938 98.073 -171.9514
225.952148 98.058 -173.1360
226.318359 98.067 -174.4568
226.684570 98.092 -176.0159
227.050781 98.119 -177.8757
227.416992 98.131 179.9368
227.783203 98.113 177.4216
228.149414 98.051 174.6018
228.515625 97.929 171.5239
228.881836 97.736 168.2610
229.248047 97.460 164.9106
229.614258 97.096 161.5847
229.980469 96.643 158.3979
230.346680 96.103 155.4565
230.712891 95.481 152.8579
231.079102 94.780 150.6980
231.445312 94.008 149.0837
231.811523 93.173 148.1399
232.177734 92.295 147.9985
232.543945 91.402 148.7649
232.910156 90.532 150.4666
233.276367 89.723 153.0168
233.642578 89.004 156.2214
234.008789 88.385 159.8405
234.375000 87.860 163.6635
234.741211 87.411 167.5547
235.107422 87.019 171.4614
235.473633 86.666 175.4120
235.839844 86.339 179.5109
236.206055 86.043 -176.0863
236.572266 85.805 -171.2456
236.938477 85.668 -165.9646
237.304688 85.677 -160.4523
237.670898 85.853 -155.0951
238.037109 86.182 -150.3037
238.403320 86.623 -146.3667
238.769531 87.131 -143.4163
239.135742 87.665 -141.4832
239.501953 88.190 -140.5585
239.868164 88.674 -140.6184
240.234375 89.085 -141.6199
240.600586 89.388 -143.4922
240.966797 89.552 -146.1375
241.333008 89.542 -149.4375
241.699219 89.319 -153.2632
242.065430 88.839 -157.4778
242.431641 88.037 -161.9333
242.797852 86.808 -166.4473
243.164062 84.964 -170.7319
243.530273 82.094 -174.1213
243.896484 76.986 -173.8425
244.262695 64.365 -120.9665
244.628906 76.286 -31.3888
244.995117 82.719 -29.4486
245.361328 86.519 -32.4164
245.727539 89.210 -36.5113
246.093750 91.280 -41.0048
246.459961 92.942 -45.6618
246.826172 94.311 -50.3790
247.192383 95.451 -55.0918
247.558594 96.404 -59.7429
247.924805 97.199 -64.2721
248.291016 97.859 -68.6163
248.657227 98.403 -72.7133
249.023438 98.849 -76.5090
249.389648 99.216 -79.9631
249.755859 99.522 -83.0546
250.122070 99.783 -85.7817
250.488281 100.014 -88.1615
250.854492 100.226 -90.2239
251.220703 100.430 -92.0070
251.586914 100.632 -93.5502
251.953125 100.838 -94.8915
252.319336 101.052 -96.0670
252.685547 101.277 -97.1108
253.051758 101.514 -98.0559
253.417969 101.766 -98.9319
253.784180 102.031 -99.7625
254.150391 102.310 -100.5624
254.516602 102.602 -101.3392
254.882812 102.911 -102.0976
255.249023 103.240 -102.8478
255.615234 103.593 -103.6110
255.981445 103.973 -104.4218
256.347656 104.385 -105.3266
256.713867 104.829 -106.3806
257.080078 105.305 -107.6443
257.446289 105.810 -109.1830
257.812500 106.340 -111.0634
258.178711 106.886 -113.3492
258.544922 107.438 -116.0927
258.911133 107.982 -119.3267
259.277344 108.504 -123.0611
259.643555 108.990 -127.2825
260.009766 109.427 -131.9591
260.375977 109.806 -137.0471
260.742188 110.116 -142.4961
261.108398 110.349 -148.2524
261.474609 110.499 -154.2600
261.840820 110.558 -160.4600
262.207031 110.523 -166.7886
262.573242 110.386 -173.1765
262.939453 110.145 -179.5479
263.305664 109.795 174.1798
263.671875 109.335 168.0930
264.038086 108.763 162.2830
264.404297 108.081 156.8433
264.770508 107.288 151.8723
265.136719 106.385 147.4766
265.502930 105.372 143.7787
265.869141 104.250 140.9309
266.235352 103.020 139.1377
266.601562 101.687 138.6871
266.967773 100.272 139.9872
267.333984 98.831 143.5776
267.700195 97.486 150.0109
268.066406 96.460 159.3984
268.432617 96.001 170.6731
268.798828 96.197 -178.3884
269.165039 96.877 -169.7002
269.531250 97.783 -163.8262
269.897461 98.729 -160.4026
270.263672 99.622 -158.8342
270.629883 100.422 -158.6042
270.996094 101.120 -159.3289
271.362305 101.715 -160.7329
271.728516 102.213 -162.6172
272.094727 102.620 -164.8376
272.460938 102.944 -167.2881
272.827148 103.191 -169.8906
273.193359 103.364 -172.5857
273.559570 103.468 -175.3213
273.925781 103.502 -178.0437
274.291992 103.468 179.3081
274.658203 103.370 176.8049
275.024414 103.211 174.5242
275.390625 103.000 172.5417
275.756836 102.749 170.9229
276.123047 102.471 169.7101
276.489258 102.184 168.9149
276.855469 101.902 168.5139
277.221680 101.638 168.4524
277.587891 101.400 168.6575
277.954102 101.191 169.0566
278.320312 101.009 169.5957
278.686523 100.851 170.2468
279.052734 100.715 171.0051
279.418945 100.603 171.8738
279.785156 100.521 172.8452
280.151367 100.472 173.8890
280.517578 100.463 174.9496
280.883789 100.494 175.9565
281.250000 100.562 176.8394
281.616211 100.659 177.5386
281.982422 100.776 178.0125
282.348633 100.905 178.2360
282.714844 101.034 178.2009
283.081055 101.152 177.9143
283.447266 101.251 177.3989
283.813477 101.319 176.6929
284.179688 101.350 175.8483
284.545898 101.335 174.9302
284.912109 101.272 174.0164
285.278320 101.156 173.1969
285.644531 100.989 172.5720
286.010742 100.777 172.2485
286.376953 100.529 172.3320
286.743164 100.261 172.9165
287.109375 99.995 174.0674
287.475586 99.757 175.8059
287.841797 99.575 178.0901
288.208008 99.476 -179.1932
288.574219 99.480 -176.2236
288.940430 99.594 -173.2201
289.306641 99.813 -170.4028
289.672852 100.121 -167.9561
290.039062 100.493 -166.0029
290.405273 100.902 -164.5989
290.771484 101.324 -163.7368
291.137695 101.737 -163.3606
291.503906 102.127 -163.3838
291.870117 102.485 -163.7089
292.236328 102.808 -164.2449
292.602539 103.098 -164.9194
292.968750 103.357 -165.6819
293.334961 103.589 -166.4988
293.701172 103.795 -167.3472
294.067383 103.977 -168.2072
294.433594 104.136 -169.0591
294.799805 104.273 -169.8842
295.166016 104.388 -170.6626
295.532227 104.481 -171.3710
295.898438 104.552 -171.9746
296.264648 104.602 -172.4253
296.630859 104.636 -172.6641
296.997070 104.664 -172.6355
297.363281 104.698 -172.3052
297.729492 104.755 -171.6782
298.095703 104.852 -170.8071
298.461914 105.000 -169.7837
298.828125 105.201 -168.7192
299.194336 105.455 -167.7192
299.560547 105.754 -166.8649
299.926758 106.086 -166.2020
