* Measurement data measured by REW V5.20.8
* Source: ASIO hdspfire, Analog 1 (1)
* Format: 4M Log Swept Sine, 1 sweep at -12.0 dBFS with no timing reference
* Dated: 13 juin 2022 14:20:07
* REW Settings:
*  C-weighting compensation: Off
*  Target level: 75.0 dB
* Note: ; 
* Measurement: off_0x1400_2_4 juin 13
* Smoothing: None
* Frequency Step: 0.36621094 Hz
* Start Frequency: 0.36621094 Hz
*
* Freq(Hz) SPL(dB) Phase(degrees)
0.366211 29.627 -39.4178
0.732422 26.668 -87.4415
1.098633 23.865 -171.2451
1.464844 29.045 111.9389
1.831055 33.381 70.8794
2.197266 35.387 40.2231
2.563477 35.192 13.9689
2.929688 31.813 -7.9543
3.295898 17.053 21.5848
3.662109 32.638 106.9574
4.028320 38.935 88.9411
4.394531 41.831 68.7529
4.760742 42.896 49.4442
5.126953 42.615 32.7828
5.493164 41.381 21.5584
5.859375 40.177 18.5892
6.225586 40.510 18.3943
6.591797 42.169 9.7625
6.958008 44.044 -7.0858
7.324219 45.796 -26.3708
7.690430 47.447 -43.4791
8.056641 49.144 -56.3329
8.422852 51.070 -65.7241
8.789062 53.200 -74.1760
9.155273 55.254 -83.3311
9.521484 56.952 -92.8786
9.887695 58.201 -101.3246
10.253906 59.141 -106.9298
10.620117 60.163 -109.0184
10.986328 61.670 -109.6725
11.352539 63.597 -112.4331
11.718750 65.510 -118.6006
12.084961 67.074 -127.0684
12.451172 68.162 -135.9791
12.817383 68.816 -143.4309
13.183594 69.247 -147.7475
13.549805 69.867 -148.4509
13.916016 71.064 -147.7103
14.282227 72.776 -148.9993
14.648438 74.602 -153.7240
15.014648 76.231 -161.1461
15.380859 77.534 -169.9807
15.747070 78.498 -179.1079
16.113281 79.166 172.3490
16.479492 79.624 165.0464
16.845703 79.997 159.3381
17.211914 80.431 155.0722
17.578125 81.030 151.4894
17.944336 81.796 147.5609
18.310547 82.623 142.6107
18.676758 83.384 136.6223
19.042969 83.986 130.0909
19.409180 84.407 123.7382
19.775391 84.695 118.2484
20.141602 84.962 113.9763
20.507812 85.340 110.6540
20.874023 85.893 107.4156
21.240234 86.569 103.3600
21.606445 87.240 98.1431
21.972656 87.794 92.0427
22.338867 88.176 85.6637
22.705078 88.393 79.6403
23.071289 88.508 74.4191
23.437500 88.609 70.1089
23.803711 88.752 66.4589
24.169922 88.964 63.0433
24.536133 89.223 59.5460
24.902344 89.494 55.8952
25.268555 89.762 52.1705
25.634766 90.032 48.4236
26.000977 90.313 44.5842
26.367188 90.596 40.5142
26.733398 90.852 36.1437
27.099609 91.050 31.5626
27.465820 91.168 27.0016
27.832031 91.211 22.7425
28.198242 91.206 19.0173
28.564453 91.192 15.9484
28.930664 91.209 13.5457
29.296875 91.299 11.7318
29.663086 91.497 10.3428
30.029297 91.835 9.0910
30.395508 92.319 7.5736
30.761719 92.918 5.4006
31.127930 93.574 2.3677
31.494141 94.225 -1.4724
31.860352 94.832 -5.8817
32.226562 95.385 -10.5706
32.592773 95.890 -15.3147
32.958984 96.365 -20.0109
33.325195 96.829 -24.6620
33.691406 97.285 -29.3077
34.057617 97.728 -33.9492
34.423828 98.150 -38.5214
34.790039 98.555 -42.9236
35.156250 98.958 -47.0844
35.522461 99.379 -51.0172
35.888672 99.833 -54.8292
36.254883 100.320 -58.6701
36.621094 100.825 -62.6552
36.987305 101.329 -66.8116
37.353516 101.813 -71.0789
37.719727 102.273 -75.3533
38.085938 102.715 -79.5481
38.452148 103.153 -83.6396
38.818359 103.597 -87.6791
39.184570 104.050 -91.7614
39.550781 104.504 -95.9683
39.916992 104.943 -100.3210
40.283203 105.353 -104.7690
40.649414 105.731 -109.2175
41.015625 106.079 -113.5745
41.381836 106.411 -117.7906
41.748047 106.739 -121.8737
42.114258 107.070 -125.8689
42.480469 107.404 -129.8228
42.846680 107.741 -133.7561
43.212891 108.082 -137.6663
43.579102 108.427 -141.5488
43.945312 108.781 -145.4216
44.311523 109.143 -149.3264
44.677734 109.513 -153.3062
45.043945 109.886 -157.3807
45.410156 110.258 -161.5410
45.776367 110.630 -165.7676
46.142578 111.004 -170.0613
46.508789 111.384 -174.4584
46.875000 111.770 -179.0182
47.241211 112.153 176.2102
47.607422 112.522 171.2174
47.973633 112.868 166.0363
48.339844 113.189 160.7184
48.706055 113.487 155.2970
49.072266 113.769 149.7618
49.438477 114.036 144.0597
49.804688 114.282 138.1228
50.170898 114.494 131.9077
50.537109 114.656 125.4216
50.903320 114.752 118.7261
51.269531 114.773 111.9187
51.635742 114.717 105.1063
52.001953 114.589 98.3809
52.368164 114.394 91.8054
52.734375 114.142 85.4125
53.100586 113.838 79.2142
53.466797 113.485 73.2185
53.833008 113.085 67.4412
54.199219 112.640 61.9108
54.565430 112.154 56.6638
54.931641 111.633 51.7347
55.297852 111.084 47.1464
55.664062 110.517 42.9058
56.030273 109.940 39.0054
56.396484 109.361 35.4258
56.762695 108.786 32.1372
57.128906 108.223 29.0974
57.495117 107.674 26.2487
57.861328 107.140 23.5212
58.227539 106.619 20.8456
58.593750 106.098 18.1711
58.959961 105.562 15.4865
59.326172 104.997 12.8281
59.692383 104.389 10.2794
60.058594 103.736 7.9550
60.424805 103.040 5.9789
60.791016 102.312 4.4630
61.157227 101.565 3.4906
61.523438 100.816 3.1147
61.889648 100.080 3.3694
62.255859 99.376 4.2799
62.622070 98.729 5.8541
62.988281 98.169 8.0444
63.354492 97.731 10.7006
63.720703 97.438 13.5565
64.086914 97.291 16.2844
64.453125 97.267 18.5908
64.819336 97.330 20.2919
65.185547 97.441 21.3303
65.551758 97.565 21.7507
65.917969 97.675 21.6624
66.284180 97.758 21.2035
66.650391 97.809 20.5078
67.016602 97.832 19.6755
67.382812 97.833 18.7582
67.749023 97.816 17.7671
68.115234 97.782 16.7046
68.481445 97.723 15.5966
68.847656 97.639 14.5078
69.213867 97.531 13.5249
69.580078 97.411 12.7185
69.946289 97.296 12.1060
70.312500 97.202 11.6356
70.678711 97.138 11.2043
71.044922 97.102 10.6976
71.411133 97.082 10.0292
71.777344 97.064 9.1665
72.143555 97.030 8.1373
72.509766 96.971 7.0231
72.875977 96.883 5.9351
73.242188 96.776 4.9746
73.608398 96.667 4.1826
73.974609 96.575 3.5055
74.340820 96.505 2.8126
74.707031 96.449 1.9719
75.073242 96.384 0.9382
75.439453 96.285 -0.2061
75.805664 96.143 -1.2831
76.171875 95.968 -2.1055
76.538086 95.786 -2.5686
76.904297 95.627 -2.7013
77.270508 95.513 -2.6384
77.636719 95.447 -2.5354
78.002930 95.422 -2.4945
78.369141 95.433 -2.5642
78.735352 95.476 -2.7896
79.101562 95.545 -3.2490
79.467773 95.627 -4.0287
79.833984 95.697 -5.1552
80.200195 95.730 -6.5481
80.566406 95.710 -8.0363
80.932617 95.645 -9.4274
81.298828 95.555 -10.5955
81.665039 95.466 -11.5382
82.031250 95.397 -12.3630
82.397461 95.347 -13.2056
82.763672 95.303 -14.1399
83.129883 95.250 -15.1445
83.496094 95.184 -16.1416
83.862305 95.112 -17.0676
84.228516 95.044 -17.9216
84.594727 94.989 -18.7633
84.960938 94.946 -19.6670
85.327148 94.906 -20.6741
85.693359 94.860 -21.7770
86.059570 94.803 -22.9376
86.425781 94.737 -24.1155
86.791992 94.663 -25.2844
87.158203 94.588 -26.4358
87.524414 94.515 -27.5763
87.890625 94.452 -28.7350
88.256836 94.402 -29.9708
88.623047 94.364 -31.3694
88.989258 94.328 -33.0166
89.355469 94.279 -34.9641
89.721680 94.196 -37.2058
90.087891 94.063 -39.6819
90.454102 93.870 -42.3019
90.820312 93.611 -44.9725
91.186523 93.286 -47.6176
91.552734 92.895 -50.1796
91.918945 92.438 -52.6123
92.285156 91.912 -54.8701
92.651367 91.315 -56.9014
93.017578 90.646 -58.6490
93.383789 89.901 -60.0531
93.750000 89.076 -61.0508
94.116211 88.165 -61.5697
94.482422 87.154 -61.5118
94.848633 86.018 -60.7120
95.214844 84.722 -58.8500
95.581055 83.224 -55.2737
95.947266 81.511 -48.6917
96.313477 79.734 -36.8698
96.679688 78.519 -17.8427
97.045898 78.825 4.6467
97.412109 80.503 22.0851
97.778320 82.567 32.2882
98.144531 84.506 37.5471
98.510742 86.211 39.9060
98.876953 87.698 40.5238
99.243164 89.001 40.0223
99.609375 90.147 38.7560
99.975586 91.159 36.9512
100.341797 92.053 34.7736
100.708008 92.843 32.3563
101.074219 93.545 29.8090
101.440430 94.173 27.2137
101.806641 94.744 24.6145
102.172852 95.272 22.0095
102.539062 95.769 19.3579
102.905273 96.236 16.6046
103.271484 96.669 13.7135
103.637695 97.059 10.6919
104.003906 97.402 7.5894
104.370117 97.698 4.4750
104.736328 97.953 1.4038
105.102539 98.176 -1.6069
105.468750 98.375 -4.5785
105.834961 98.549 -7.5472
106.201172 98.696 -10.5310
106.567383 98.807 -13.5085
106.933594 98.882 -16.4240
107.299805 98.924 -19.2134
107.666016 98.942 -21.8376
108.032227 98.948 -24.3018
108.398438 98.949 -26.6499
108.764648 98.944 -28.9371
109.130859 98.930 -31.1959
109.497070 98.898 -33.4181
109.863281 98.846 -35.5603
110.229492 98.775 -37.5702
110.595703 98.692 -39.4121
110.961914 98.605 -41.0840
111.328125 98.522 -42.6135
111.694336 98.445 -44.0416
112.060547 98.374 -45.4022
112.426758 98.307 -46.7136
112.792969 98.240 -47.9802
113.159180 98.172 -49.2009
113.525391 98.103 -50.3721
113.891602 98.031 -51.4843
114.257812 97.953 -52.5165
114.624023 97.870 -53.4374
114.990234 97.787 -54.2158
115.356445 97.712 -54.8380
115.722656 97.651 -55.3192
116.088867 97.612 -55.7023
116.455078 97.595 -56.0409
116.821289 97.598 -56.3811
117.187500 97.618 -56.7493
117.553711 97.649 -57.1525
117.919922 97.687 -57.5853
118.286133 97.732 -58.0366
118.652344 97.783 -58.4933
119.018555 97.840 -58.9447
119.384766 97.906 -59.3884
119.750977 97.985 -59.8363
120.117188 98.078 -60.3131
120.483398 98.184 -60.8458
120.849609 98.299 -61.4517
121.215820 98.420 -62.1311
121.582031 98.546 -62.8738
121.948242 98.676 -63.6708
122.314453 98.809 -64.5228
122.680664 98.946 -65.4385
123.046875 99.084 -66.4220
123.413086 99.220 -67.4640
123.779297 99.353 -68.5424
124.145508 99.485 -69.6357
124.511719 99.620 -70.7383
124.877930 99.761 -71.8661
125.244141 99.909 -73.0482
125.610352 100.062 -74.3102
125.976562 100.217 -75.6608
126.342773 100.370 -77.0938
126.708984 100.520 -78.5995
127.075195 100.669 -80.1786
127.441406 100.816 -81.8447
127.807617 100.960 -83.6155
128.173828 101.095 -85.4971
128.540039 101.216 -87.4758
128.906250 101.322 -89.5228
129.272461 101.412 -91.6097
129.638672 101.490 -93.7238
130.004883 101.557 -95.8724
130.371094 101.612 -98.0741
130.737305 101.651 -100.3380
131.103516 101.668 -102.6497
131.469727 101.658 -104.9686
131.835938 101.622 -107.2416
132.202148 101.562 -109.4219
132.568359 101.484 -111.4838
132.934570 101.393 -113.4242
133.300781 101.292 -115.2491
133.666992 101.180 -116.9568
134.033203 101.057 -118.5273
134.399414 100.926 -119.9266
134.765625 100.792 -121.1221
135.131836 100.664 -122.1003
135.498047 100.551 -122.8759
135.864258 100.460 -123.4849
136.230469 100.395 -123.9707
136.596680 100.358 -124.3699
136.962891 100.348 -124.7089
137.329102 100.369 -125.0121
137.695312 100.424 -125.3162
138.061523 100.514 -125.6764
138.427734 100.638 -126.1613
138.793945 100.787 -126.8341
139.160156 100.952 -127.7300
139.526367 101.120 -128.8436
139.892578 101.283 -130.1321
140.258789 101.434 -131.5345
140.625000 101.578 -132.9979
140.991211 101.720 -134.4977
141.357422 101.864 -136.0432
141.723633 102.012 -137.6650
142.089844 102.164 -139.3922
142.456055 102.312 -141.2347
142.822266 102.454 -143.1803
143.188477 102.587 -145.2048
143.554688 102.712 -147.2885
143.920898 102.832 -149.4250
144.287109 102.947 -151.6204
144.653320 103.057 -153.8824
145.019531 103.160 -156.2125
145.385742 103.255 -158.6034
145.751953 103.342 -161.0446
146.118164 103.421 -163.5289
146.484375 103.494 -166.0564
146.850586 103.558 -168.6290
147.216797 103.614 -171.2458
147.583008 103.660 -173.8981
147.949219 103.696 -176.5720
148.315430 103.723 -179.2551
148.681641 103.744 178.0570
149.047852 103.760 175.3596
149.414062 103.771 172.6421
149.780273 103.778 169.8929
150.146484 103.779 167.1052
150.512695 103.773 164.2766
150.878906 103.759 161.4089
151.245117 103.735 158.5074
151.611328 103.701 155.5820
151.977539 103.654 152.6479
152.343750 103.597 149.7231
152.709961 103.531 146.8237
153.076172 103.460 143.9562
153.442383 103.389 141.1134
153.808594 103.318 138.2750
154.174805 103.250 135.4144
154.541016 103.182 132.5082
154.907227 103.112 129.5430
155.273438 103.036 126.5188
155.639648 102.951 123.4462
156.005859 102.857 120.3413
156.372070 102.753 117.2201
156.738281 102.643 114.0922
157.104492 102.529 110.9568
157.470703 102.411 107.8029
157.836914 102.292 104.6110
158.203125 102.170 101.3615
158.569336 102.042 98.0408
158.935547 101.905 94.6456
159.301758 101.758 91.1805
159.667969 101.598 87.6520
160.034180 101.426 84.0615
160.400391 101.240 80.4054
160.766602 101.037 76.6790
161.132812 100.815 72.8843
161.499023 100.569 69.0366
161.865234 100.297 65.1630
162.231445 99.999 61.2966
162.597656 99.674 57.4694
162.963867 99.326 53.7057
163.330078 98.957 50.0233
163.696289 98.572 46.4337
164.062500 98.174 42.9426
164.428711 97.767 39.5475
164.794922 97.355 36.2325
165.161133 96.941 32.9690
165.527344 96.525 29.7219
165.893555 96.104 26.4617
166.259766 95.674 23.1735
166.625977 95.231 19.8568
166.992188 94.772 16.5171
167.358398 94.296 13.1536
167.724609 93.802 9.7538
168.090820 93.284 6.3005
168.457031 92.737 2.7849
168.823242 92.152 -0.7821
169.189453 91.523 -4.3672
169.555664 90.844 -7.9257
169.921875 90.116 -11.4187
170.288086 89.339 -14.8301
170.654297 88.512 -18.1743
171.020508 87.633 -21.4937
171.386719 86.690 -24.8457
171.752930 85.664 -28.2902
172.119141 84.527 -31.8823
172.485352 83.244 -35.6802
172.851562 81.764 -39.7743
173.217773 80.011 -44.3541
173.583984 77.862 -49.8650
173.950195 75.084 -57.4614
174.316406 71.223 -70.8431
174.682617 66.042 -105.8823
175.048828 66.806 -173.6677
175.415039 72.091 155.9771
175.781250 75.916 143.4845
176.147461 78.716 135.9139
176.513672 80.916 130.2228
176.879883 82.740 125.4150
177.246094 84.314 121.0488
177.612305 85.708 116.8771
177.978516 86.965 112.7498
178.344727 88.107 108.5876
178.710938 89.149 104.3693
179.077148 90.100 100.1129
179.443359 90.971 95.8549
179.809570 91.774 91.6305
180.175781 92.522 87.4628
180.541992 93.226 83.3573
180.908203 93.895 79.3044
181.274414 94.538 75.2842
181.640625 95.161 71.2704
182.006836 95.766 67.2360
182.373047 96.355 63.1581
182.739258 96.927 59.0225
183.105469 97.483 54.8251
183.471680 98.022 50.5691
183.837891 98.546 46.2570
184.204102 99.059 41.8811
184.570312 99.562 37.4192
184.936523 100.055 32.8361
185.302734 100.536 28.0945
185.668945 100.997 23.1676
186.035156 101.431 18.0503
186.401367 101.829 12.7611
186.767578 102.183 7.3391
187.133789 102.489 1.8368
187.500000 102.745 -3.6884
187.866211 102.952 -9.1786
188.232422 103.111 -14.5800
188.598633 103.228 -19.8453
188.964844 103.307 -24.9382
189.331055 103.357 -29.8354
189.697266 103.385 -34.5306
190.063477 103.397 -39.0325
190.429688 103.398 -43.3596
190.795898 103.390 -47.5317
191.162109 103.375 -51.5637
191.528320 103.354 -55.4630
191.894531 103.328 -59.2335
192.260742 103.300 -62.8817
192.626953 103.272 -66.4209
192.993164 103.244 -69.8699
193.359375 103.218 -73.2483
193.725586 103.193 -76.5698
194.091797 103.167 -79.8394
194.458008 103.139 -83.0571
194.824219 103.111 -86.2227
195.190430 103.084 -89.3408
195.556641 103.058 -92.4243
195.922852 103.034 -95.4888
196.289062 103.010 -98.5522
196.655273 102.985 -101.6260
197.021484 102.955 -104.7163
197.387695 102.918 -107.8213
197.753906 102.871 -110.9338
198.120117 102.813 -114.0420
198.486328 102.742 -117.1313
198.852539 102.658 -120.1890
199.218750 102.563 -123.2036
199.584961 102.455 -126.1682
199.951172 102.336 -129.0776
200.317383 102.206 -131.9263
200.683594 102.066 -134.7058
201.049805 101.915 -137.4058
201.416016 101.754 -140.0149
201.782227 101.587 -142.5259
202.148438 101.415 -144.9370
202.514648 101.241 -147.2534
202.880859 101.066 -149.4844
203.247070 100.893 -151.6411
203.613281 100.720 -153.7349
203.979492 100.549 -155.7749
204.345703 100.379 -157.7725
204.711914 100.209 -159.7368
205.078125 100.037 -161.6770
205.444336 99.863 -163.5996
205.810547 99.683 -165.5051
206.176758 99.494 -167.3887
206.542969 99.294 -169.2378
206.909180 99.082 -171.0332
207.275391 98.855 -172.7505
207.641602 98.615 -174.3589
208.007812 98.363 -175.8267
208.374023 98.103 -177.1260
208.740234 97.841 -178.2380
209.106445 97.583 -179.1602
209.472656 97.336 -179.9070
209.838867 97.105 179.4910
210.205078 96.893 178.9941
210.571289 96.698 178.5635
210.937500 96.517 178.1694
211.303711 96.348 177.7981
211.669922 96.184 177.4556
212.036133 96.023 177.1643
212.402344 95.863 176.9590
212.768555 95.706 176.8765
213.134766 95.558 176.9478
213.500977 95.424 177.1934
213.867188 95.315 177.6167
214.233398 95.239 178.2019
214.599609 95.206 178.9089
214.965820 95.223 179.6711
215.332031 95.297 -179.6011
215.698242 95.424 -179.0068
216.064453 95.600 -178.6372
216.430664 95.813 -178.5586
216.796875 96.052 -178.8091
217.163086 96.306 -179.4014
217.529297 96.565 179.6680
217.895508 96.821 178.4109
218.261719 97.066 176.8450
218.627930 97.295 174.9912
218.994141 97.503 172.8726
219.360352 97.686 170.5107
219.726562 97.840 167.9250
220.092773 97.962 165.1333
220.458984 98.046 162.1548
220.825195 98.089 159.0146
221.191406 98.087 155.7422
221.557617 98.037 152.3672
221.923828 97.937 148.9170
222.290039 97.782 145.4119
222.656250 97.567 141.8711
223.022461 97.285 138.3257
223.388672 96.923 134.8296
223.754883 96.469 131.4756
224.121094 95.913 128.3989
224.487305 95.246 125.7817
224.853516 94.464 123.8567
225.219727 93.567 122.9297
225.585938 92.568 123.4226
225.952148 91.511 125.9253
226.318359 90.509 131.1396
226.684570 89.803 139.4077
227.050781 89.706 149.6602
227.416992 90.334 159.1699
227.783203 91.456 165.5825
228.149414 92.735 168.4338
228.515625 93.951 168.4297
228.881836 95.011 166.4634
229.248047 95.891 163.2534
229.614258 96.602 159.3069
229.980469 97.162 154.9629
230.346680 97.598 150.4385
230.712891 97.932 145.8643
231.079102 98.183 141.3145
231.445312 98.369 136.8257
231.811523 98.502 132.4128
232.177734 98.594 128.0757
232.543945 98.654 123.8018
232.910156 98.689 119.5688
233.276367 98.703 115.3467
233.642578 98.698 111.1069
234.008789 98.673 106.8271
234.375000 98.626 102.4998
234.741211 98.554 98.1331
235.107422 98.456 93.7483
235.473633 98.332 89.3738
235.839844 98.183 85.0396
236.206055 98.013 80.7720
236.572266 97.826 76.5938
236.938477 97.626 72.5261
237.304688 97.417 68.5947
237.670898 97.203 64.8320
238.037109 96.992 61.2759
238.403320 96.795 57.9626
238.769531 96.625 54.9141
239.135742 96.499 52.1250
239.501953 96.434 49.5559
239.868164 96.443 47.1340
240.234375 96.538 44.7603
240.600586 96.723 42.3196
240.966797 96.998 39.6934
241.333008 97.355 36.7722
241.699219 97.782 33.4707
242.065430 98.263 29.7417
242.431641 98.779 25.5801
242.797852 99.315 21.0195
243.164062 99.857 16.1187
243.530273 100.399 10.9453
243.896484 100.936 5.5635
244.262695 101.467 0.0264
244.628906 101.990 -5.6277
244.995117 102.506 -11.3730
245.361328 103.015 -17.1970
245.727539 103.515 -23.0967
246.093750 104.006 -29.0771
246.459961 104.482 -35.1467
246.826172 104.940 -41.3105
247.192383 105.373 -47.5654
247.558594 105.772 -53.8940
247.924805 106.133 -60.2644
248.291016 106.449 -66.6309
248.657227 106.719 -72.9404
249.023438 106.941 -79.1375
249.389648 107.118 -85.1709
249.755859 107.254 -90.9973
250.122070 107.355 -96.5857
250.488281 107.427 -101.9180
250.854492 107.476 -106.9878
251.220703 107.509 -111.8003
251.586914 107.531 -116.3672
251.953125 107.545 -120.7051
252.319336 107.555 -124.8328
252.685547 107.563 -128.7688
253.051758 107.570 -132.5320
253.417969 107.580 -136.1401
253.784180 107.592 -139.6121
254.150391 107.607 -142.9663
254.516602 107.626 -146.2209
254.882812 107.649 -149.3938
255.249023 107.676 -152.5007
255.615234 107.705 -155.5569
255.981445 107.736 -158.5776
256.347656 107.767 -161.5769
256.713867 107.797 -164.5679
257.080078 107.822 -167.5610
257.446289 107.840 -170.5615
257.812500 107.847 -173.5684
258.178711 107.839 -176.5740
258.544922 107.812 -179.5618
258.911133 107.764 177.4941
259.277344 107.690 174.6287
259.643555 107.590 171.8887
260.009766 107.466 169.3298
260.375977 107.321 167.0144
260.742188 107.163 165.0034
261.108398 107.005 163.3438
261.474609 106.863 162.0513
261.840820 106.757 161.0947
262.207031 106.703 160.3875
262.573242 106.712 159.7947
262.939453 106.787 159.1594
263.305664 106.919 158.3374
263.671875 107.090 157.2258
264.038086 107.284 155.7764
264.404297 107.481 153.9897
264.770508 107.667 151.9026
265.136719 107.832 149.5698
265.502930 107.970 147.0535
265.869141 108.077 144.4133
266.235352 108.151 141.7036
266.601562 108.195 138.9712
266.967773 108.211 136.2544
267.333984 108.202 133.5837
267.700195 108.171 130.9832
268.066406 108.121 128.4695
268.432617 108.056 126.0549
268.798828 107.981 123.7463
269.165039 107.898 121.5454
269.531250 107.813 119.4465
269.897461 107.730 117.4363
270.263672 107.650 115.4929
270.629883 107.576 113.5874
270.996094 107.509 111.6870
271.362305 107.445 109.7600
271.728516 107.382 107.7810
272.094727 107.315 105.7349
272.460938 107.238 103.6194
272.827148 107.146 101.4429
273.193359 107.034 99.2227
273.559570 106.898 96.9839
273.925781 106.734 94.7588
274.291992 106.539 92.5881
274.658203 106.312 90.5237
275.024414 106.055 88.6240
275.390625 105.771 86.9497
275.756836 105.469 85.5520
276.123047 105.160 84.4597
276.489258 104.856 83.6736
276.855469 104.568 83.1628
277.221680 104.304 82.8730
277.587891 104.068 82.7385
277.954102 103.860 82.6960
278.320312 103.674 82.6951
278.686523 103.505 82.7083
279.052734 103.346 82.7344
279.418945 103.191 82.7988
279.785156 103.038 82.9451
280.151367 102.889 83.2219
280.517578 102.750 83.6672
280.883789 102.630 84.2986
281.250000 102.538 85.1082
281.616211 102.485 86.0642
281.982422 102.479 87.1145
282.348633 102.524 88.1885
282.714844 102.625 89.2000
283.081055 102.779 90.0557
283.447266 102.979 90.6667
283.813477 103.216 90.9629
284.179688 103.477 90.8994
284.545898 103.747 90.4570
284.912109 104.014 89.6392
285.278320 104.266 88.4688
285.644531 104.491 86.9875
286.010742 104.681 85.2527
286.376953 104.830 83.3323
286.743164 104.937 81.2964
287.109375 105.002 79.2070
287.475586 105.029 77.1118
287.841797 105.020 75.0413
288.208008 104.980 73.0120
288.574219 104.911 71.0315
288.940430 104.813 69.1050
289.306641 104.685 67.2380
289.672852 104.525 65.4409
290.039062 104.330 63.7307
290.405273 104.095 62.1379
290.771484 103.815 60.7114
291.137695 103.486 59.5244
291.503906 103.103 58.6790
291.870117 102.669 58.3103
292.236328 102.189 58.5869
292.602539 101.681 59.7068
292.968750 101.178 61.8726
293.334961 100.734 65.2307
293.701172 100.424 69.7659
294.067383 100.328 75.1870
294.433594 100.497 80.9160
294.799805 100.931 86.2605
295.166016 101.579 90.6624
295.532227 102.366 93.8362
295.898438 103.225 95.7358
296.264648 104.101 96.4548
296.630859 104.958 96.1450
296.997070 105.773 94.9729
297.363281 106.530 93.0979
297.729492 107.223 90.6626
298.095703 107.850 87.7876
298.461914 108.412 84.5684
298.828125 108.911 81.0779
299.194336 109.350 77.3704
299.560547 109.730 73.4871
299.926758 110.054 69.4614
