* Measurement data measured by REW V5.20.8
* Source: ASIO hdspfire, Analog 1 (1)
* Format: 4M Log Swept Sine, 1 sweep at -12.0 dBFS with no timing reference
* Dated: 13 juin 2022 13:53:39
* REW Settings:
*  C-weighting compensation: Off
*  Target level: 75.0 dB
* Note: ; 
* Measurement: off_0x1400_3_1 juin 13
* Smoothing: None
* Frequency Step: 0.36621094 Hz
* Start Frequency: 0.36621094 Hz
*
* Freq(Hz) SPL(dB) Phase(degrees)
0.366211 11.988 75.4571
0.732422 15.944 53.3993
1.098633 15.537 35.5196
1.464844 10.259 29.0076
1.831055 6.907 123.0618
2.197266 16.829 133.1811
2.563477 21.273 117.7898
2.929688 23.719 94.9798
3.295898 25.340 63.2410
3.662109 27.272 22.3939
4.028320 30.142 -20.0027
4.394531 33.095 -57.1336
4.760742 35.123 -89.6741
5.126953 35.614 -120.6492
5.493164 33.694 -154.7441
5.859375 27.362 139.1264
6.225586 33.789 25.8716
6.591797 40.967 -12.2390
6.958008 44.905 -37.6450
7.324219 47.071 -57.7722
7.690430 48.060 -72.4155
8.056641 48.471 -79.7350
8.422852 49.276 -80.1525
8.789062 51.028 -80.4113
9.155273 53.032 -85.6852
9.521484 54.534 -94.3048
9.887695 55.333 -102.2542
10.253906 55.726 -105.4305
10.620117 56.628 -102.5662
10.986328 58.723 -100.1337
11.352539 61.293 -104.3644
11.718750 63.463 -114.1399
12.084961 64.900 -126.2341
12.451172 65.535 -137.7224
12.817383 65.446 -145.3886
13.183594 65.112 -145.2950
13.549805 65.809 -137.5182
13.916016 68.115 -132.5273
14.282227 70.806 -136.2861
14.648438 73.015 -145.9923
15.014648 74.547 -158.4278
15.380859 75.398 -171.5306
15.747070 75.595 176.2896
16.113281 75.197 166.8173
16.479492 74.414 162.4420
16.845703 73.888 164.9660
17.211914 74.505 170.7457
17.578125 76.101 172.0251
17.944336 77.744 166.8743
18.310547 78.909 157.6359
18.676758 79.435 146.7147
19.042969 79.279 136.0207
19.409180 78.433 127.5021
19.775391 76.972 123.8303
20.141602 75.328 128.5672
20.507812 74.639 142.1725
20.874023 75.600 156.1062
21.240234 77.341 164.3126
21.606445 79.190 168.3212
21.972656 81.053 169.7692
22.338867 82.901 168.8862
22.705078 84.624 165.8433
23.071289 86.118 161.3745
23.437500 87.369 156.5132
23.803711 88.445 152.1423
24.169922 89.497 148.5809
24.536133 90.665 145.3537
24.902344 91.982 141.4877
25.268555 93.370 136.2266
25.634766 94.708 129.4253
26.000977 95.909 121.3898
26.367188 96.934 112.5685
26.733398 97.777 103.3690
27.099609 98.448 94.1085
27.465820 98.966 85.0370
27.832031 99.354 76.3782
28.198242 99.642 68.3491
28.564453 99.881 61.1183
28.930664 100.138 54.6963
29.296875 100.483 48.8147
29.663086 100.949 42.9391
30.029297 101.511 36.4950
30.395508 102.098 29.1520
30.761719 102.629 20.9338
31.127930 103.044 12.1332
31.494141 103.320 3.1628
31.860352 103.466 -5.5723
32.226562 103.519 -13.7720
32.592773 103.524 -21.3088
32.958984 103.522 -28.2463
33.325195 103.541 -34.7733
33.691406 103.578 -41.0732
34.057617 103.614 -47.2104
34.423828 103.635 -53.1108
34.790039 103.643 -58.6380
35.156250 103.660 -63.7104
35.522461 103.715 -68.3872
35.888672 103.821 -72.8591
36.254883 103.969 -77.3381
36.621094 104.129 -81.9236
36.987305 104.272 -86.5479
37.353516 104.389 -91.0296
37.719727 104.496 -95.1995
38.085938 104.627 -99.0306
38.452148 104.814 -102.6977
38.818359 105.060 -106.5056
39.184570 105.338 -110.7174
39.550781 105.598 -115.4110
39.916992 105.797 -120.4561
40.283203 105.912 -125.5923
40.649414 105.948 -130.5396
41.015625 105.930 -135.0964
41.381836 105.895 -139.2014
41.748047 105.873 -142.9329
42.114258 105.881 -146.4473
42.480469 105.917 -149.8944
42.846680 105.972 -153.3660
43.212891 106.039 -156.9004
43.579102 106.109 -160.5143
43.945312 106.172 -164.2212
44.311523 106.216 -168.0208
44.677734 106.235 -171.8792
45.043945 106.222 -175.7246
45.410156 106.179 -179.4736
45.776367 106.114 176.9316
46.142578 106.038 173.4951
46.508789 105.960 170.1716
46.875000 105.878 166.8989
47.241211 105.789 163.6326
47.607422 105.683 160.3610
47.973633 105.552 157.0959
48.339844 105.391 153.8607
48.706055 105.191 150.6931
49.072266 104.944 147.6646
49.438477 104.648 144.8917
49.804688 104.308 142.5203
50.170898 103.948 140.6703
50.537109 103.597 139.3643
50.903320 103.287 138.4871
51.269531 103.030 137.8232
51.635742 102.815 137.1636
52.001953 102.616 136.4026
52.368164 102.406 135.5662
52.734375 102.165 134.7754
53.100586 101.888 134.1986
53.466797 101.582 134.0188
53.833008 101.271 134.4021
54.199219 100.995 135.4321
54.565430 100.805 137.0131
54.931641 100.737 138.8264
55.297852 100.786 140.4517
55.664062 100.909 141.6029
56.030273 101.050 142.2792
56.396484 101.176 142.7075
56.762695 101.292 143.1523
57.128906 101.430 143.7283
57.495117 101.620 144.3295
57.861328 101.868 144.7292
58.227539 102.153 144.7632
58.593750 102.443 144.4357
58.959961 102.719 143.8772
59.326172 102.983 143.2239
59.692383 103.249 142.5237
60.058594 103.529 141.7290
60.424805 103.822 140.7645
60.791016 104.119 139.5981
61.157227 104.412 138.2554
61.523438 104.699 136.7766
61.889648 104.981 135.1699
62.255859 105.259 133.4036
62.622070 105.525 131.4448
62.988281 105.768 129.3094
63.354492 105.979 127.0745
63.720703 106.160 124.8459
64.086914 106.322 122.7015
64.453125 106.480 120.6495
64.819336 106.644 118.6320
65.185547 106.817 116.5710
65.551758 106.991 114.4226
65.917969 107.159 112.1953
66.284180 107.318 109.9253
66.650391 107.473 107.6328
67.016602 107.630 105.2969
67.382812 107.788 102.8674
67.749023 107.942 100.3031
68.115234 108.080 97.6042
68.481445 108.197 94.8163
68.847656 108.291 91.9996
69.213867 108.367 89.1943
69.580078 108.433 86.3986
69.946289 108.492 83.5781
70.312500 108.539 80.6973
70.678711 108.570 77.7485
71.044922 108.577 74.7601
71.411133 108.559 71.7798
71.777344 108.519 68.8479
72.143555 108.462 65.9778
72.509766 108.393 63.1582
72.875977 108.310 60.3699
73.242188 108.211 57.6072
73.608398 108.093 54.8888
73.974609 107.955 52.2484
74.340820 107.801 49.7180
74.707031 107.637 47.3112
75.073242 107.469 45.0188
75.439453 107.297 42.8190
75.805664 107.121 40.6915
76.171875 106.941 38.6298
76.538086 106.752 36.6411
76.904297 106.555 34.7386
77.270508 106.353 32.9323
77.636719 106.149 31.2216
78.002930 105.945 29.5975
78.369141 105.741 28.0487
78.735352 105.537 26.5684
79.101562 105.330 25.1610
79.467773 105.119 23.8429
79.833984 104.905 22.6385
80.200195 104.690 21.5703
80.566406 104.482 20.6451
80.932617 104.287 19.8431
81.298828 104.111 19.1162
81.665039 103.954 18.4011
82.031250 103.810 17.6449
82.397461 103.667 16.8293
82.763672 103.518 15.9790
83.129883 103.357 15.1500
83.496094 103.184 14.4037
83.862305 103.006 13.7781
84.228516 102.827 13.2776
84.594727 102.654 12.8828
84.960938 102.484 12.5789
85.327148 102.316 12.3804
85.693359 102.149 12.3335
86.059570 101.992 12.4888
86.425781 101.858 12.8599
86.791992 101.762 13.3951
87.158203 101.713 13.9875
87.524414 101.707 14.5206
87.890625 101.733 14.9214
88.256836 101.777 15.1810
88.623047 101.831 15.3367
88.989258 101.895 15.4332
89.355469 101.970 15.4949
89.721680 102.061 15.5194
90.087891 102.170 15.4902
90.454102 102.297 15.3877
90.820312 102.445 15.1876
91.186523 102.612 14.8547
91.552734 102.795 14.3440
91.918945 102.988 13.6178
92.285156 103.176 12.6698
92.651367 103.354 11.5350
93.017578 103.515 10.2758
93.383789 103.663 8.9493
93.750000 103.803 7.5791
94.116211 103.943 6.1454
94.482422 104.083 4.6038
94.848633 104.217 2.9210
95.214844 104.335 1.1003
95.581055 104.430 -0.8156
95.947266 104.501 -2.7640
96.313477 104.551 -4.6919
96.679688 104.588 -6.5754
97.045898 104.618 -8.4250
97.412109 104.646 -10.2709
97.778320 104.671 -12.1427
98.144531 104.688 -14.0540
98.510742 104.696 -15.9977
98.876953 104.692 -17.9542
99.243164 104.677 -19.9045
99.609375 104.655 -21.8402
99.975586 104.626 -23.7676
100.341797 104.592 -25.7026
100.708008 104.551 -27.6610
101.074219 104.501 -29.6486
101.440430 104.437 -31.6561
101.806641 104.356 -33.6604
102.172852 104.256 -35.6292
102.539062 104.138 -37.5271
102.905273 104.004 -39.3196
103.271484 103.858 -40.9768
103.637695 103.706 -42.4791
104.003906 103.558 -43.8263
104.370117 103.421 -45.0449
104.736328 103.302 -46.1866
105.102539 103.199 -47.3145
105.468750 103.109 -48.4779
105.834961 103.024 -49.6967
106.201172 102.938 -50.9572
106.567383 102.848 -52.2290
106.933594 102.756 -53.4869
107.299805 102.664 -54.7268
107.666016 102.577 -55.9648
108.032227 102.491 -57.2239
108.398438 102.405 -58.5154
108.764648 102.314 -59.8308
109.130859 102.214 -61.1444
109.497070 102.106 -62.4257
109.863281 101.993 -63.6501
110.229492 101.876 -64.8049
110.595703 101.761 -65.8861
110.961914 101.648 -66.8949
111.328125 101.543 -67.8364
111.694336 101.448 -68.7227
112.060547 101.367 -69.5780
112.426758 101.301 -70.4376
112.792969 101.248 -71.3391
113.159180 101.204 -72.3077
113.525391 101.164 -73.3456
113.891602 101.123 -74.4315
114.257812 101.081 -75.5353
114.624023 101.039 -76.6368
114.990234 101.004 -77.7389
115.356445 100.977 -78.8651
115.722656 100.958 -80.0450
116.088867 100.944 -81.2959
116.455078 100.931 -82.6163
116.821289 100.917 -83.9934
117.187500 100.903 -85.4154
117.553711 100.890 -86.8783
117.919922 100.877 -88.3828
118.286133 100.866 -89.9270
118.652344 100.857 -91.5073
119.018555 100.853 -93.1287
119.384766 100.857 -94.8182
119.750977 100.869 -96.6230
120.117188 100.883 -98.5886
120.483398 100.888 -100.7303
120.849609 100.875 -103.0165
121.215820 100.837 -105.3782
121.582031 100.776 -107.7411
121.948242 100.701 -110.0583
122.314453 100.617 -112.3264
122.680664 100.532 -114.5734
123.046875 100.443 -116.8270
123.413086 100.349 -119.0881
123.779297 100.247 -121.3269
124.145508 100.141 -123.5045
124.511719 100.041 -125.6035
124.877930 99.956 -127.6493
125.244141 99.895 -129.7068
125.610352 99.856 -131.8582
125.976562 99.835 -134.1726
126.342773 99.821 -136.6866
126.708984 99.804 -139.3971
127.075195 99.775 -142.2693
127.441406 99.730 -145.2493
127.807617 99.669 -148.2809
128.173828 99.598 -151.3214
128.540039 99.523 -154.3522
128.906250 99.449 -157.3792
129.272461 99.381 -160.4235
129.638672 99.320 -163.5067
130.004883 99.265 -166.6422
130.371094 99.218 -169.8365
130.737305 99.179 -173.0992
131.103516 99.149 -176.4501
131.469727 99.126 -179.9153
131.835938 99.106 176.4858
132.202148 99.084 172.7557
132.568359 99.052 168.9232
132.934570 99.008 165.0377
133.300781 98.953 161.1543
133.666992 98.891 157.3208
134.033203 98.829 153.5691
134.399414 98.775 149.9121
134.765625 98.736 146.3440
135.131836 98.719 142.8418
135.498047 98.727 139.3689
135.864258 98.761 135.8838
136.230469 98.819 132.3495
136.596680 98.897 128.7408
136.962891 98.991 125.0444
137.329102 99.095 121.2545
137.695312 99.205 117.3693
138.061523 99.315 113.3937
138.427734 99.417 109.3485
138.793945 99.506 105.2762
139.160156 99.579 101.2362
139.526367 99.639 97.2889
139.892578 99.694 93.4733
140.258789 99.749 89.7936
140.625000 99.811 86.2223
140.991211 99.880 82.7205
141.357422 99.953 79.2620
141.723633 100.027 75.8455
142.089844 100.097 72.4868
142.456055 100.166 69.2020
142.822266 100.234 65.9932
143.188477 100.303 62.8472
143.554688 100.371 59.7496
143.920898 100.436 56.6974
144.287109 100.495 53.7030
144.653320 100.549 50.7830
145.019531 100.601 47.9414
145.385742 100.651 45.1616
145.751953 100.701 42.4132
146.118164 100.745 39.6730
146.484375 100.775 36.9456
146.850586 100.784 34.2710
147.216797 100.772 31.7142
147.583008 100.741 29.3395
147.949219 100.702 27.1853
148.315430 100.666 25.2485
148.681641 100.641 23.4890
149.047852 100.630 21.8516
149.414062 100.631 20.2928
149.780273 100.640 18.7972
150.146484 100.654 17.3729
150.512695 100.675 16.0342
150.878906 100.707 14.7817
151.245117 100.753 13.5946
151.611328 100.815 12.4384
151.977539 100.891 11.2816
152.343750 100.977 10.1091
152.709961 101.071 8.9203
153.076172 101.172 7.7197
153.442383 101.279 6.5049
153.808594 101.393 5.2642
154.174805 101.512 3.9846
154.541016 101.633 2.6620
154.907227 101.753 1.3042
155.273438 101.872 -0.0770
155.639648 101.992 -1.4795
156.005859 102.112 -2.9161
156.372070 102.232 -4.4094
156.738281 102.346 -5.9729
157.104492 102.448 -7.5946
157.470703 102.532 -9.2335
157.836914 102.599 -10.8326
158.203125 102.653 -12.3427
158.569336 102.702 -13.7433
158.935547 102.755 -15.0508
159.301758 102.816 -16.3064
159.667969 102.885 -17.5535
160.034180 102.956 -18.8163
160.400391 103.026 -20.0933
160.766602 103.093 -21.3652
161.132812 103.156 -22.6106
161.499023 103.218 -23.8168
161.865234 103.282 -24.9845
162.231445 103.350 -26.1226
162.597656 103.422 -27.2421
162.963867 103.500 -28.3530
163.330078 103.584 -29.4664
163.696289 103.672 -30.5950
164.062500 103.766 -31.7532
164.428711 103.861 -32.9519
164.794922 103.955 -34.1924
165.161133 104.046 -35.4636
165.527344 104.131 -36.7445
165.893555 104.212 -38.0115
166.259766 104.292 -39.2490
166.625977 104.374 -40.4563
166.992188 104.463 -41.6481
167.358398 104.560 -42.8490
167.724609 104.664 -44.0850
168.090820 104.774 -45.3746
168.457031 104.887 -46.7278
168.823242 105.001 -48.1490
169.189453 105.115 -49.6423
169.555664 105.226 -51.2130
169.921875 105.333 -52.8661
170.288086 105.432 -54.6013
170.654297 105.520 -56.4100
171.020508 105.596 -58.2777
171.386719 105.657 -60.1891
171.752930 105.703 -62.1334
172.119141 105.733 -64.1041
172.485352 105.747 -66.0939
172.851562 105.739 -68.0854
173.217773 105.710 -70.0490
173.583984 105.658 -71.9442
173.950195 105.586 -73.7300
174.316406 105.499 -75.3743
174.682617 105.404 -76.8601
175.048828 105.306 -78.1852
175.415039 105.212 -79.3572
175.781250 105.127 -80.3912
176.147461 105.055 -81.3093
176.513672 105.001 -82.1447
176.879883 104.967 -82.9423
177.246094 104.954 -83.7537
177.612305 104.956 -84.6251
177.978516 104.970 -85.5868
178.344727 104.987 -86.6475
178.710938 105.002 -87.7988
179.077148 105.011 -89.0231
179.443359 105.013 -90.3036
179.809570 105.007 -91.6299
180.175781 104.990 -92.9978
180.541992 104.962 -94.4052
180.908203 104.919 -95.8441
181.274414 104.855 -97.2938
181.640625 104.768 -98.7175
182.006836 104.657 -100.0638
182.373047 104.522 -101.2754
182.739258 104.369 -102.2988
183.105469 104.206 -103.0955
183.471680 104.042 -103.6450
183.837891 103.886 -103.9446
184.204102 103.746 -104.0037
184.570312 103.633 -103.8402
184.936523 103.553 -103.4849
185.302734 103.517 -102.9883
185.668945 103.531 -102.4257
186.035156 103.599 -101.8921
186.401367 103.718 -101.4874
186.767578 103.879 -101.2963
187.133789 104.072 -101.3770
187.500000 104.285 -101.7590
187.866211 104.506 -102.4490
188.232422 104.725 -103.4363
188.598633 104.933 -104.6973
188.964844 105.122 -106.1974
189.331055 105.286 -107.8921
189.697266 105.423 -109.7318
190.063477 105.530 -111.6675
190.429688 105.609 -113.6565
190.795898 105.663 -115.6672
191.162109 105.695 -117.6799
191.528320 105.705 -119.6835
191.894531 105.697 -121.6699
192.260742 105.670 -123.6295
192.626953 105.624 -125.5481
192.993164 105.562 -127.4081
193.359375 105.485 -129.1927
193.725586 105.397 -130.8906
194.091797 105.302 -132.4972
194.458008 105.203 -134.0156
194.824219 105.104 -135.4542
195.190430 105.007 -136.8247
195.556641 104.915 -138.1443
195.922852 104.831 -139.4377
196.289062 104.755 -140.7388
196.655273 104.687 -142.0869
197.021484 104.623 -143.5193
197.387695 104.557 -145.0613
197.753906 104.482 -146.7200
198.120117 104.391 -148.4854
198.486328 104.277 -150.3354
198.852539 104.137 -152.2432
199.218750 103.968 -154.1794
199.584961 103.766 -156.1129
199.951172 103.528 -158.0054
200.317383 103.253 -159.8088
200.683594 102.939 -161.4667
201.049805 102.590 -162.9169
201.416016 102.210 -164.1007
201.782227 101.805 -164.9692
202.148438 101.387 -165.4877
202.514648 100.963 -165.6343
202.880859 100.545 -165.3976
203.247070 100.143 -164.7747
203.613281 99.769 -163.7732
203.979492 99.435 -162.4196
204.345703 99.157 -160.7705
204.711914 98.944 -158.9191
205.078125 98.805 -156.9904
205.444336 98.738 -155.1227
205.810547 98.736 -153.4440
206.176758 98.784 -152.0518
206.542969 98.865 -151.0059
206.909180 98.962 -150.3296
207.275391 99.058 -150.0148
207.641602 99.136 -150.0236
208.007812 99.182 -150.2899
208.374023 99.186 -150.7211
208.740234 99.142 -151.2047
209.106445 99.049 -151.6199
209.472656 98.915 -151.8511
209.838867 98.751 -151.8029
210.205078 98.573 -151.4124
210.571289 98.401 -150.6587
210.937500 98.253 -149.5684
211.303711 98.145 -148.2134
211.669922 98.089 -146.6989
212.036133 98.085 -145.1422
212.402344 98.129 -143.6484
212.768555 98.211 -142.2904
213.134766 98.321 -141.1045
213.500977 98.449 -140.0963
213.867188 98.586 -139.2531
214.233398 98.726 -138.5515
214.599609 98.864 -137.9626
214.965820 98.999 -137.4515
215.332031 99.130 -136.9792
215.698242 99.258 -136.5090
216.064453 99.389 -136.0151
216.430664 99.528 -135.4910
216.796875 99.681 -134.9519
217.163086 99.853 -134.4309
217.529297 100.045 -133.9709
217.895508 100.256 -133.6138
218.261719 100.481 -133.3927
218.627930 100.715 -133.3275
218.994141 100.951 -133.4229
219.360352 101.186 -133.6705
219.726562 101.413 -134.0531
220.092773 101.631 -134.5486
220.458984 101.838 -135.1345
220.825195 102.031 -135.7886
221.191406 102.212 -136.4867
221.557617 102.379 -137.2008
221.923828 102.534 -137.8998
222.290039 102.680 -138.5540
222.656250 102.824 -139.1439
223.022461 102.970 -139.6680
223.388672 103.127 -140.1432
223.754883 103.297 -140.5999
224.121094 103.483 -141.0718
224.487305 103.685 -141.5890
224.853516 103.904 -142.1796
225.219727 104.139 -142.8768
225.585938 104.391 -143.7261
225.952148 104.654 -144.7809
226.318359 104.920 -146.0892
226.684570 105.177 -147.6742
227.050781 105.410 -149.5200
227.416992 105.606 -151.5686
227.783203 105.757 -153.7288
228.149414 105.861 -155.8932
228.515625 105.923 -157.9587
228.881836 105.955 -159.8445
229.248047 105.969 -161.5070
229.614258 105.984 -162.9465
229.980469 106.011 -164.2051
230.346680 106.062 -165.3551
230.712891 106.139 -166.4835
231.079102 106.243 -167.6758
231.445312 106.367 -169.0045
231.811523 106.503 -170.5237
232.177734 106.641 -172.2659
232.543945 106.770 -174.2418
232.910156 106.880 -176.4395
233.276367 106.960 -178.8248
233.642578 107.003 178.6543
234.008789 107.005 176.0618
234.375000 106.964 173.4635
234.741211 106.882 170.9177
235.107422 106.764 168.4683
235.473633 106.614 166.1432
235.839844 106.434 163.9592
236.206055 106.229 161.9309
236.572266 105.998 160.0785
236.938477 105.743 158.4319
237.304688 105.469 157.0269
237.670898 105.181 155.8972
238.037109 104.885 155.0665
238.403320 104.591 154.5450
238.769531 104.305 154.3319
239.135742 104.035 154.4211
239.501953 103.788 154.8044
239.868164 103.573 155.4681
240.234375 103.401 156.3851
240.600586 103.279 157.5059
240.966797 103.219 158.7556
241.333008 103.223 160.0382
241.699219 103.293 161.2467
242.065430 103.423 162.2759
242.431641 103.606 163.0344
242.797852 103.827 163.4548
243.164062 104.072 163.4989
243.530273 104.326 163.1582
243.896484 104.578 162.4486
244.262695 104.815 161.4009
244.628906 105.029 160.0537
244.995117 105.214 158.4478
245.361328 105.362 156.6256
245.727539 105.468 154.6345
246.093750 105.527 152.5299
246.459961 105.534 150.3806
246.826172 105.485 148.2699
247.192383 105.381 146.2957
247.558594 105.226 144.5658
247.924805 105.029 143.1890
248.291016 104.809 142.2595
248.657227 104.586 141.8375
249.023438 104.386 141.9269
249.389648 104.236 142.4615
249.755859 104.155 143.3088
250.122070 104.154 144.2955
250.488281 104.232 145.2477
250.854492 104.377 146.0267
251.220703 104.574 146.5468
251.586914 104.808 146.7701
251.953125 105.065 146.6925
252.319336 105.338 146.3248
252.685547 105.618 145.6831
253.051758 105.900 144.7820
253.417969 106.181 143.6354
253.784180 106.458 142.2555
254.150391 106.728 140.6537
254.516602 106.989 138.8373
254.882812 107.241 136.8069
255.249023 107.482 134.5564
255.615234 107.712 132.0737
255.981445 107.926 129.3453
256.347656 108.121 126.3604
256.713867 108.291 123.1128
257.080078 108.431 119.6021
257.446289 108.536 115.8311
257.812500 108.599 111.8054
258.178711 108.615 107.5334
258.544922 108.576 103.0265
258.911133 108.473 98.3011
259.277344 108.299 93.3790
259.643555 108.044 88.2858
260.009766 107.697 83.0476
260.375977 107.245 77.6915
260.742188 106.669 72.2473
261.108398 105.943 66.7568
261.474609 105.029 61.2939
261.840820 103.874 55.9990
262.207031 102.396 51.1466
262.573242 100.467 47.3083
262.939453 97.874 45.8351
263.305664 94.280 50.6709
263.671875 89.938 75.2120
264.038086 90.339 122.8123
264.404297 94.510 143.4323
264.770508 97.738 147.3210
265.136719 100.031 145.9253
265.502930 101.716 142.5586
265.869141 102.993 138.3718
266.235352 103.982 133.8480
266.601562 104.757 129.2147
266.967773 105.371 124.5867
267.333984 105.859 120.0227
267.700195 106.247 115.5515
268.066406 106.555 111.1837
268.432617 106.798 106.9175
268.798828 106.986 102.7424
269.165039 107.129 98.6439
269.531250 107.231 94.6083
269.897461 107.296 90.6270
270.263672 107.325 86.6990
270.629883 107.322 82.8302
270.996094 107.288 79.0297
271.362305 107.228 75.3051
271.728516 107.144 71.6566
272.094727 107.043 68.0770
272.460938 106.926 64.5503
272.827148 106.797 61.0542
273.193359 106.656 57.5619
273.559570 106.504 54.0431
273.925781 106.339 50.4657
274.291992 106.158 46.7990
274.658203 105.955 43.0199
275.024414 105.722 39.1194
275.390625 105.451 35.1085
275.756836 105.136 31.0194
276.123047 104.770 26.9009
276.489258 104.353 22.8093
276.855469 103.885 18.7980
277.221680 103.370 14.9081
277.587891 102.813 11.1643
277.954102 102.219 7.5760
278.320312 101.592 4.1422
278.686523 100.935 0.8563
279.052734 100.253 -2.2926
279.418945 99.549 -5.3256
279.785156 98.828 -8.2832
280.151367 98.094 -11.2333
280.517578 97.351 -14.2736
280.883789 96.595 -17.5270
281.250000 95.822 -21.1366
281.616211 95.024 -25.2657
281.982422 94.196 -30.1089
282.348633 93.334 -35.9137
282.714844 92.442 -43.0039
283.081055 91.545 -51.7898
283.447266 90.700 -62.7278
283.813477 90.016 -76.1519
284.179688 89.660 -91.9077
284.545898 89.781 -108.9890
284.912109 90.401 -125.7925
285.278320 91.387 -141.0259
285.644531 92.552 -154.2437
286.010742 93.753 -165.6152
286.376953 94.903 -175.5132
286.743164 95.962 175.7178
287.109375 96.913 167.8247
287.475586 97.754 160.6436
287.841797 98.491 154.0740
288.208008 99.137 148.0537
288.574219 99.705 142.5371
288.940430 100.211 137.4805
289.306641 100.669 132.8342
289.672852 101.094 128.5420
290.039062 101.496 124.5415
290.405273 101.884 120.7661
290.771484 102.265 117.1484
291.137695 102.641 113.6230
291.503906 103.014 110.1301
291.870117 103.383 106.6199
292.236328 103.744 103.0552
292.602539 104.094 99.4148
292.968750 104.428 95.6899
293.334961 104.745 91.8811
293.701172 105.043 87.9922
294.067383 105.320 84.0315
294.433594 105.574 80.0068
294.799805 105.806 75.9292
295.166016 106.016 71.8113
295.532227 106.203 67.6660
295.898438 106.369 63.5054
296.264648 106.515 59.3374
296.630859 106.642 55.1685
296.997070 106.753 51.0020
297.363281 106.847 46.8440
297.729492 106.926 42.7019
298.095703 106.993 38.5835
298.461914 107.048 34.4941
298.828125 107.097 30.4324
299.194336 107.141 26.3889
299.560547 107.183 22.3481
299.926758 107.223 18.2944
