* Measurement data measured by REW V5.20.8
* Source: ASIO hdspfire, Analog 1 (1)
* Format: 4M Log Swept Sine, 1 sweep at -12.0 dBFS with no timing reference
* Dated: 13 juin 2022 14:09:42
* REW Settings:
*  C-weighting compensation: Off
*  Target level: 75.0 dB
* Note: ; 
* Measurement: off_0x1400_0_3 juin 13
* Smoothing: None
* Frequency Step: 0.36621094 Hz
* Start Frequency: 0.36621094 Hz
*
* Freq(Hz) SPL(dB) Phase(degrees)
0.366211 9.313 84.9076
0.732422 13.777 27.0885
1.098633 16.006 -14.4663
1.464844 15.721 -48.5424
1.831055 12.256 -78.9107
2.197266 3.296 -110.4565
2.563477 -4.353 -176.4111
2.929688 11.164 -175.8833
3.295898 21.679 166.7219
3.662109 28.220 145.3187
4.028320 32.548 123.5782
4.394531 35.422 102.5430
4.760742 37.289 82.8025
5.126953 38.526 64.7466
5.493164 39.513 48.3066
5.859375 40.573 32.5528
6.225586 41.829 16.2927
6.591797 43.176 -0.7720
6.958008 44.433 -17.5853
7.324219 45.494 -32.2372
7.690430 46.469 -42.8053
8.056641 47.731 -48.8845
8.422852 49.607 -53.3086
8.789062 51.881 -59.8343
9.155273 54.043 -69.2344
9.521484 55.777 -79.9214
9.887695 57.027 -89.7144
10.253906 57.971 -96.6092
10.620117 59.019 -99.8668
10.986328 60.573 -101.6041
11.352539 62.554 -105.3719
11.718750 64.512 -112.4178
12.084961 66.099 -121.5807
12.451172 67.178 -130.9357
12.817383 67.777 -138.4122
13.183594 68.127 -142.0035
13.549805 68.741 -141.0448
13.916016 70.120 -138.5050
14.282227 72.123 -138.9794
14.648438 74.204 -143.8617
15.014648 76.004 -151.9661
15.380859 77.399 -161.7762
15.747070 78.372 -172.0936
16.113281 78.949 178.0546
16.479492 79.190 169.5832
16.845703 79.220 163.3697
17.211914 79.262 159.8976
17.578125 79.596 158.4566
17.944336 80.344 156.9462
18.310547 81.338 153.4312
18.676758 82.289 147.5432
19.042969 82.987 140.1322
19.409180 83.354 132.4724
19.775391 83.424 125.8480
20.141602 83.340 121.2462
20.507812 83.332 118.8043
20.874023 83.582 117.3875
21.240234 84.055 115.3668
21.606445 84.547 112.0745
21.972656 84.882 108.1134
22.338867 85.018 104.6601
22.705078 85.065 102.6774
23.071289 85.214 102.2177
23.437500 85.589 102.2535
23.803711 86.113 101.6384
24.169922 86.629 100.2033
24.536133 87.048 98.7074
24.902344 87.422 98.0487
25.268555 87.908 98.4531
25.634766 88.633 99.1526
26.000977 89.581 99.0368
26.367188 90.632 97.5963
26.733398 91.689 95.0176
27.099609 92.728 91.6542
27.465820 93.762 87.6227
27.832031 94.796 82.7880
28.198242 95.793 77.0037
28.564453 96.702 70.3237
28.930664 97.478 63.0273
29.296875 98.111 55.5028
29.663086 98.618 48.1047
30.029297 99.041 41.0414
30.395508 99.422 34.3306
30.761719 99.789 27.8498
31.127930 100.146 21.4598
31.494141 100.480 15.1158
31.860352 100.786 8.8884
32.226562 101.072 2.8918
32.592773 101.354 -2.8174
32.958984 101.654 -8.2988
33.325195 101.984 -13.6978
33.691406 102.334 -19.1511
34.057617 102.686 -24.7044
34.423828 103.020 -30.3020
34.790039 103.330 -35.8367
35.156250 103.621 -41.2141
35.522461 103.902 -46.3870
35.888672 104.183 -51.3556
36.254883 104.472 -56.1487
36.621094 104.775 -60.8163
36.987305 105.093 -65.4340
37.353516 105.422 -70.0995
37.719727 105.747 -74.8969
38.085938 106.044 -79.8371
38.452148 106.288 -84.8158
38.818359 106.470 -89.6232
39.184570 106.600 -94.0142
39.550781 106.720 -97.8254
39.916992 106.879 -101.0936
40.283203 107.118 -104.0901
40.649414 107.439 -107.2030
41.015625 107.809 -110.7295
41.381836 108.175 -114.7410
41.748047 108.496 -119.0975
42.114258 108.752 -123.5537
42.480469 108.952 -127.8718
42.846680 109.116 -131.8993
43.212891 109.277 -135.5972
43.579102 109.452 -139.0215
43.945312 109.655 -142.2727
44.311523 109.882 -145.4421
44.677734 110.137 -148.5876
45.043945 110.418 -151.7417
45.410156 110.727 -154.9392
45.776367 111.065 -158.2391
46.142578 111.431 -161.7251
46.508789 111.816 -165.4794
46.875000 112.202 -169.5474
47.241211 112.575 -173.9131
47.607422 112.920 -178.5049
47.973633 113.237 176.7709
48.339844 113.532 171.9806
48.706055 113.818 167.1221
49.072266 114.103 162.1162
49.438477 114.385 156.8423
49.804688 114.646 151.2024
50.170898 114.861 145.1744
50.537109 115.007 138.8276
50.903320 115.068 132.2991
51.269531 115.038 125.7495
51.635742 114.926 119.3182
52.001953 114.743 113.0933
52.368164 114.504 107.1036
52.734375 114.217 101.3400
53.100586 113.886 95.7867
53.466797 113.510 90.4524
53.833008 113.088 85.3757
54.199219 112.626 80.6096
54.565430 112.131 76.1974
54.931641 111.615 72.1567
55.297852 111.086 68.4880
55.664062 110.552 65.1921
56.030273 110.025 62.2788
56.396484 109.518 59.7417
56.762695 109.053 57.5135
57.128906 108.643 55.4418
57.495117 108.287 53.3234
57.861328 107.967 50.9895
58.227539 107.658 48.3792
58.593750 107.332 45.5426
58.959961 106.978 42.5837
59.326172 106.595 39.5836
59.692383 106.186 36.5581
60.058594 105.750 33.4751
60.424805 105.276 30.3149
60.791016 104.747 27.1283
61.157227 104.149 24.0499
61.523438 103.483 21.2537
61.889648 102.766 18.8766
62.255859 102.018 16.9502
62.622070 101.256 15.3912
62.988281 100.479 14.0785
63.354492 99.660 12.9738
63.720703 98.775 12.2092
64.086914 97.806 12.0844
64.453125 96.771 12.9781
64.819336 95.720 15.2109
65.185547 94.730 18.9034
65.551758 93.880 23.9204
65.917969 93.224 29.9445
66.284180 92.803 36.5822
66.650391 92.637 43.3677
67.016602 92.723 49.7368
67.382812 93.010 55.1654
67.749023 93.415 59.3987
68.115234 93.859 62.5234
68.481445 94.297 64.8264
68.847656 94.721 66.5891
69.213867 95.149 67.9463
69.580078 95.592 68.8611
69.946289 96.045 69.2107
70.312500 96.482 68.9150
70.678711 96.868 68.0232
71.044922 97.175 66.7216
71.411133 97.390 65.2788
71.777344 97.526 63.9688
72.143555 97.614 62.9863
72.509766 97.693 62.3817
72.875977 97.800 62.0425
73.242188 97.950 61.7551
73.608398 98.135 61.3218
73.974609 98.332 60.6545
74.340820 98.521 59.7888
74.707031 98.695 58.8256
75.073242 98.861 57.8508
75.439453 99.029 56.8818
75.805664 99.210 55.8663
76.171875 99.403 54.7242
76.538086 99.599 53.3994
76.904297 99.786 51.8872
77.270508 99.960 50.2227
77.636719 100.120 48.4496
78.002930 100.268 46.5914
78.369141 100.410 44.6400
78.735352 100.545 42.5675
79.101562 100.667 40.3473
79.467773 100.770 37.9764
79.833984 100.846 35.4850
80.200195 100.888 32.9318
80.566406 100.899 30.3893
80.932617 100.886 27.9182
81.298828 100.861 25.5437
81.665039 100.838 23.2390
82.031250 100.825 20.9287
82.397461 100.823 18.5160
82.763672 100.824 15.9185
83.129883 100.815 13.0967
83.496094 100.785 10.0587
83.862305 100.727 6.8408
84.228516 100.636 3.4784
84.594727 100.515 -0.0182
84.960938 100.366 -3.6702
85.327148 100.182 -7.5157
85.693359 99.955 -11.5845
86.059570 99.671 -15.8717
86.425781 99.317 -20.3313
86.791992 98.885 -24.8862
87.158203 98.375 -29.4556
87.524414 97.791 -33.9884
87.890625 97.143 -38.4917
88.256836 96.437 -43.0421
88.623047 95.670 -47.7770
88.989258 94.832 -52.8693
89.355469 93.897 -58.5127
89.721680 92.835 -64.9293
90.087891 91.610 -72.4182
90.454102 90.186 -81.4476
90.820312 88.539 -92.8085
91.186523 86.709 -107.8239
91.552734 84.944 -128.2721
91.918945 83.899 -154.4620
92.285156 84.192 178.4869
92.651367 85.485 156.8429
93.017578 87.057 141.5845
93.383789 88.565 130.8813
93.750000 89.934 123.0001
94.116211 91.168 116.7819
94.482422 92.279 111.5265
94.848633 93.274 106.8589
95.214844 94.164 102.6097
95.581055 94.963 98.7028
95.947266 95.693 95.0703
96.313477 96.368 91.6210
96.679688 96.998 88.2542
97.045898 97.583 84.8977
97.412109 98.118 81.5316
97.778320 98.603 78.1779
98.144531 99.041 74.8715
98.510742 99.438 71.6306
98.876953 99.802 68.4470
99.243164 100.134 65.3010
99.609375 100.434 62.1820
99.975586 100.703 59.1022
100.341797 100.940 56.0881
100.708008 101.151 53.1624
101.074219 101.344 50.3263
101.440430 101.523 47.5576
101.806641 101.689 44.8243
102.172852 101.839 42.1038
102.539062 101.971 39.3932
102.905273 102.082 36.7097
103.271484 102.172 34.0773
103.637695 102.242 31.5150
104.003906 102.297 29.0317
104.370117 102.340 26.6259
104.736328 102.373 24.2900
105.102539 102.396 22.0162
105.468750 102.411 19.7970
105.834961 102.416 17.6295
106.201172 102.412 15.5145
106.567383 102.398 13.4574
106.933594 102.376 11.4641
107.299805 102.346 9.5361
107.666016 102.311 7.6687
108.032227 102.269 5.8539
108.398438 102.221 4.0900
108.764648 102.163 2.3900
109.130859 102.094 0.7826
109.497070 102.017 -0.6973
109.863281 101.939 -2.0256
110.229492 101.868 -3.2037
110.595703 101.810 -4.2622
110.961914 101.770 -5.2522
111.328125 101.748 -6.2258
111.694336 101.740 -7.2228
112.060547 101.742 -8.2628
112.426758 101.749 -9.3502
112.792969 101.757 -10.4803
113.159180 101.766 -11.6434
113.525391 101.773 -12.8275
113.891602 101.777 -14.0183
114.257812 101.780 -15.2031
114.624023 101.782 -16.3743
114.990234 101.785 -17.5323
115.356445 101.790 -18.6852
115.722656 101.798 -19.8447
116.088867 101.808 -21.0215
116.455078 101.818 -22.2217
116.821289 101.827 -23.4452
117.187500 101.832 -24.6854
117.553711 101.833 -25.9297
117.919922 101.829 -27.1609
118.286133 101.822 -28.3622
118.652344 101.815 -29.5236
119.018555 101.810 -30.6484
119.384766 101.814 -31.7559
119.750977 101.826 -32.8739
120.117188 101.845 -34.0306
120.483398 101.868 -35.2443
120.849609 101.893 -36.5208
121.215820 101.916 -37.8575
121.582031 101.936 -39.2478
121.948242 101.950 -40.6835
122.314453 101.957 -42.1528
122.680664 101.956 -43.6392
123.046875 101.947 -45.1230
123.413086 101.934 -46.5905
123.779297 101.918 -48.0416
124.145508 101.904 -49.4940
124.511719 101.891 -50.9742
124.877930 101.876 -52.5043
125.244141 101.855 -54.0883
125.610352 101.824 -55.7097
125.976562 101.780 -57.3414
126.342773 101.726 -58.9589
126.708984 101.663 -60.5514
127.075195 101.596 -62.1234
127.441406 101.523 -63.6868
127.807617 101.443 -65.2498
128.173828 101.354 -66.8090
128.540039 101.255 -68.3500
128.906250 101.145 -69.8530
129.272461 101.025 -71.2999
129.638672 100.897 -72.6787
130.004883 100.762 -73.9818
130.371094 100.622 -75.2019
130.737305 100.479 -76.3267
131.103516 100.333 -77.3392
131.469727 100.191 -78.2257
131.835938 100.059 -78.9854
132.202148 99.943 -79.6415
132.568359 99.847 -80.2402
132.934570 99.774 -80.8391
133.300781 99.718 -81.4867
133.666992 99.673 -82.2075
134.033203 99.633 -83.0013
134.399414 99.594 -83.8541
134.765625 99.555 -84.7520
135.131836 99.514 -85.6884
135.498047 99.469 -86.6575
135.864258 99.417 -87.6418
136.230469 99.356 -88.6069
136.596680 99.287 -89.5071
136.962891 99.217 -90.3042
137.329102 99.153 -90.9844
137.695312 99.105 -91.5647
138.061523 99.078 -92.0845
138.427734 99.076 -92.5891
138.793945 99.097 -93.1195
139.160156 99.142 -93.7112
139.526367 99.209 -94.3981
139.892578 99.296 -95.2133
140.258789 99.397 -96.1805
140.625000 99.506 -97.3085
140.991211 99.619 -98.5901
141.357422 99.734 -100.0127
141.723633 99.849 -101.5686
142.089844 99.965 -103.2572
142.456055 100.077 -105.0789
142.822266 100.185 -107.0256
143.188477 100.288 -109.0812
143.554688 100.387 -111.2323
143.920898 100.486 -113.4829
144.287109 100.588 -115.8608
144.653320 100.691 -118.4073
145.019531 100.790 -121.1545
145.385742 100.876 -124.1088
145.751953 100.941 -127.2456
146.118164 100.984 -130.5245
146.484375 101.004 -133.9058
146.850586 101.001 -137.3624
147.216797 100.978 -140.8792
147.583008 100.936 -144.4427
147.949219 100.877 -148.0355
148.315430 100.805 -151.6399
148.681641 100.725 -155.2510
149.047852 100.644 -158.8899
149.414062 100.565 -162.6014
149.780273 100.485 -166.4358
150.146484 100.400 -170.4232
150.512695 100.302 -174.5565
150.878906 100.187 -178.7959
151.245117 100.054 176.9119
151.611328 99.910 172.6080
151.977539 99.764 168.3057
152.343750 99.622 163.9910
152.709961 99.490 159.6355
153.076172 99.371 155.2119
153.442383 99.266 150.7013
153.808594 99.175 146.0902
154.174805 99.101 141.3660
154.541016 99.043 136.5139
154.907227 99.001 131.5239
155.273438 98.972 126.3973
155.639648 98.956 121.1494
156.005859 98.952 115.8048
156.372070 98.961 110.3884
156.738281 98.986 104.9185
157.104492 99.027 99.4059
157.470703 99.085 93.8585
157.836914 99.159 88.2874
158.203125 99.247 82.7078
158.569336 99.348 77.1377
158.935547 99.461 71.5946
159.301758 99.584 66.0927
159.667969 99.717 60.6461
160.034180 99.856 55.2700
160.400391 100.001 49.9805
160.766602 100.151 44.7917
161.132812 100.307 39.7101
161.499023 100.468 34.7324
161.865234 100.635 29.8501
162.231445 100.805 25.0551
162.597656 100.976 20.3478
162.963867 101.145 15.7378
163.330078 101.313 11.2384
163.696289 101.483 6.8574
164.062500 101.657 2.5878
164.428711 101.839 -1.5938
164.794922 102.029 -5.7229
165.161133 102.228 -9.8389
165.527344 102.432 -13.9751
165.893555 102.636 -18.1556
166.259766 102.836 -22.3932
166.625977 103.027 -26.6927
166.992188 103.205 -31.0527
167.358398 103.366 -35.4673
167.724609 103.506 -39.9266
168.090820 103.624 -44.4172
168.457031 103.717 -48.9220
168.823242 103.783 -53.4229
169.189453 103.821 -57.9016
169.555664 103.832 -62.3425
169.921875 103.814 -66.7317
170.288086 103.768 -71.0547
170.654297 103.693 -75.2954
171.020508 103.589 -79.4302
171.386719 103.456 -83.4316
171.752930 103.297 -87.2695
172.119141 103.116 -90.9194
172.485352 102.917 -94.3696
172.851562 102.707 -97.6216
173.217773 102.487 -100.6870
173.583984 102.260 -103.5752
173.950195 102.026 -106.2856
174.316406 101.785 -108.8052
174.682617 101.540 -111.1165
175.048828 101.297 -113.2100
175.415039 101.060 -115.0918
175.781250 100.834 -116.7832
176.147461 100.622 -118.3071
176.513672 100.422 -119.6763
176.879883 100.235 -120.8899
177.246094 100.065 -121.9424
177.612305 99.915 -122.8354
177.978516 99.789 -123.5840
178.344727 99.691 -124.2102
178.710938 99.622 -124.7351
179.077148 99.586 -125.1729
179.443359 99.587 -125.5396
179.809570 99.629 -125.8687
180.175781 99.717 -126.2168
180.541992 99.851 -126.6592
180.908203 100.027 -127.2642
181.274414 100.236 -128.0771
181.640625 100.471 -129.1138
182.006836 100.724 -130.3704
182.373047 100.992 -131.8398
182.739258 101.273 -133.5215
183.105469 101.564 -135.4224
183.471680 101.863 -137.5498
183.837891 102.164 -139.9067
184.204102 102.466 -142.4893
184.570312 102.763 -145.2900
184.936523 103.055 -148.3022
185.302734 103.338 -151.5212
185.668945 103.610 -154.9431
186.035156 103.867 -158.5605
186.401367 104.106 -162.3594
186.767578 104.324 -166.3174
187.133789 104.519 -170.4072
187.500000 104.690 -174.6001
187.866211 104.838 -178.8716
188.232422 104.965 176.7954
188.598633 105.072 172.4106
188.964844 105.161 167.9795
189.331055 105.232 163.5054
189.697266 105.284 158.9956
190.063477 105.318 154.4597
190.429688 105.334 149.9104
190.795898 105.332 145.3599
191.162109 105.314 140.8169
191.528320 105.281 136.2869
191.894531 105.234 131.7725
192.260742 105.174 127.2759
192.626953 105.099 122.8013
192.993164 105.011 118.3550
193.359375 104.910 113.9465
193.725586 104.795 109.5842
194.091797 104.669 105.2769
194.458008 104.532 101.0320
194.824219 104.384 96.8594
195.190430 104.226 92.7700
195.556641 104.059 88.7786
195.922852 103.886 84.8987
196.289062 103.709 81.1406
196.655273 103.533 77.5081
197.021484 103.360 73.9968
197.387695 103.195 70.5981
197.753906 103.038 67.2991
198.120117 102.892 64.0867
198.486328 102.759 60.9463
198.852539 102.639 57.8606
199.218750 102.534 54.8093
199.584961 102.443 51.7698
199.951172 102.365 48.7202
200.317383 102.298 45.6423
200.683594 102.239 42.5242
201.049805 102.186 39.3601
201.416016 102.136 36.1479
201.782227 102.087 32.8870
202.148438 102.038 29.5747
202.514648 101.986 26.2068
202.880859 101.930 22.7800
203.247070 101.866 19.2942
203.613281 101.791 15.7559
203.979492 101.702 12.1790
204.345703 101.596 8.5830
204.711914 101.472 4.9885
205.078125 101.331 1.4121
205.444336 101.172 -2.1370
205.810547 100.997 -5.6558
206.176758 100.802 -9.1421
206.542969 100.586 -12.5911
206.909180 100.347 -15.9888
207.275391 100.082 -19.3142
207.641602 99.789 -22.5435
208.007812 99.468 -25.6509
208.374023 99.119 -28.6118
208.740234 98.738 -31.3945
209.106445 98.326 -33.9563
209.472656 97.882 -36.2393
209.838867 97.410 -38.1729
210.205078 96.916 -39.6841
210.571289 96.413 -40.7112
210.937500 95.918 -41.2185
211.303711 95.448 -41.2041
211.669922 95.021 -40.7036
212.036133 94.652 -39.7866
212.402344 94.354 -38.5527
212.768555 94.134 -37.1230
213.134766 93.994 -35.6296
213.500977 93.928 -34.1975
213.867188 93.924 -32.9258
214.233398 93.968 -31.8745
214.599609 94.046 -31.0659
214.965820 94.144 -30.4927
215.332031 94.253 -30.1274
215.698242 94.363 -29.9312
216.064453 94.469 -29.8525
216.430664 94.567 -29.8279
216.796875 94.660 -29.7881
217.163086 94.755 -29.6731
217.529297 94.862 -29.4531
217.895508 94.996 -29.1445
218.261719 95.164 -28.8076
218.627930 95.372 -28.5242
218.994141 95.616 -28.3665
219.360352 95.891 -28.3796
219.726562 96.191 -28.5874
220.092773 96.516 -29.0137
220.458984 96.862 -29.6970
220.825195 97.223 -30.6868
221.191406 97.589 -32.0203
221.557617 97.946 -33.7029
221.923828 98.284 -35.7024
222.290039 98.593 -37.9646
222.656250 98.872 -40.4346
223.022461 99.119 -43.0735
223.388672 99.334 -45.8591
223.754883 99.513 -48.7744
224.121094 99.655 -51.7935
224.487305 99.754 -54.8733
224.853516 99.809 -57.9602
225.219727 99.822 -60.9983
225.585938 99.796 -63.9429
225.952148 99.735 -66.7617
226.318359 99.643 -69.4268
226.684570 99.521 -71.9036
227.050781 99.374 -74.1416
227.416992 99.209 -76.0811
227.783203 99.039 -77.6707
228.149414 98.885 -78.8918
228.515625 98.766 -79.7817
228.881836 98.702 -80.4402
229.248047 98.705 -81.0181
229.614258 98.778 -81.6895
229.980469 98.912 -82.6201
230.346680 99.091 -83.9380
230.712891 99.294 -85.7185
231.079102 99.501 -87.9844
231.445312 99.693 -90.7175
231.811523 99.855 -93.8765
232.177734 99.977 -97.4128
232.543945 100.051 -101.2808
232.910156 100.069 -105.4353
233.276367 100.025 -109.8308
233.642578 99.912 -114.4126
234.008789 99.724 -119.1167
234.375000 99.460 -123.8735
234.741211 99.117 -128.6145
235.107422 98.697 -133.2781
235.473633 98.203 -137.8130
235.839844 97.638 -142.1753
236.206055 97.002 -146.3218
236.572266 96.300 -150.2053
236.938477 95.537 -153.7771
237.304688 94.724 -156.9998
237.670898 93.873 -159.8677
238.037109 93.000 -162.4280
238.403320 92.116 -164.7913
238.769531 91.228 -167.1274
239.135742 90.333 -169.6526
239.501953 89.420 -172.6165
239.868164 88.468 -176.3115
240.234375 87.457 178.9004
240.600586 86.364 172.5374
240.966797 85.187 163.9248
241.333008 83.981 152.1460
241.699219 82.934 136.2500
242.065430 82.426 116.2949
242.431641 82.812 94.8406
242.797852 84.011 75.6536
243.164062 85.608 60.4082
243.530273 87.272 48.6270
243.896484 88.854 39.2920
244.262695 90.309 31.5762
244.628906 91.634 24.9258
244.995117 92.839 18.9861
245.361328 93.937 13.5237
245.727539 94.941 8.3789
246.093750 95.862 3.4355
246.459961 96.705 -1.3904
246.826172 97.473 -6.1533
247.192383 98.167 -10.8796
247.558594 98.788 -15.5684
247.924805 99.335 -20.1968
248.291016 99.810 -24.7278
248.657227 100.218 -29.1157
249.023438 100.565 -33.3154
249.389648 100.859 -37.2888
249.755859 101.108 -41.0071
250.122070 101.325 -44.4570
250.488281 101.520 -47.6411
250.854492 101.701 -50.5779
251.220703 101.878 -53.2998
251.586914 102.058 -55.8479
251.953125 102.243 -58.2688
252.319336 102.437 -60.6084
252.685547 102.639 -62.9092
253.051758 102.848 -65.2063
253.417969 103.061 -67.5251
253.784180 103.274 -69.8804
254.150391 103.486 -72.2771
254.516602 103.694 -74.7134
254.882812 103.898 -77.1833
255.249023 104.097 -79.6812
255.615234 104.293 -82.2031
255.981445 104.487 -84.7505
256.347656 104.682 -87.3289
256.713867 104.878 -89.9507
257.080078 105.078 -92.6340
257.446289 105.283 -95.4041
257.812500 105.493 -98.2932
258.178711 105.708 -101.3386
258.544922 105.924 -104.5811
258.911133 106.137 -108.0586
259.277344 106.340 -111.8044
259.643555 106.526 -115.8428
260.009766 106.684 -120.1860
260.375977 106.804 -124.8342
260.742188 106.876 -129.7725
261.108398 106.888 -134.9712
261.474609 106.831 -140.3870
261.840820 106.693 -145.9629
262.207031 106.468 -151.6292
262.573242 106.147 -157.3015
262.939453 105.724 -162.8835
263.305664 105.195 -168.2622
263.671875 104.560 -173.3098
264.038086 103.819 -177.8828
264.404297 102.981 178.1765
264.770508 102.058 175.0334
265.136719 101.073 172.8494
265.502930 100.055 171.7625
265.869141 99.047 171.8567
266.235352 98.095 173.1277
266.601562 97.250 175.4480
266.967773 96.555 178.5559
267.333984 96.030 -177.9097
267.700195 95.674 -174.3318
268.066406 95.460 -171.0181
268.432617 95.350 -168.1453
268.798828 95.307 -165.7578
269.165039 95.302 -163.8091
269.531250 95.318 -162.2148
269.897461 95.347 -160.8933
270.263672 95.389 -159.7871
270.629883 95.444 -158.8674
270.996094 95.513 -158.1270
271.362305 95.597 -157.5750
271.728516 95.696 -157.2300
272.094727 95.807 -157.1187
272.460938 95.926 -157.2695
272.827148 96.048 -157.7080
273.193359 96.164 -158.4468
273.559570 96.264 -159.4829
273.925781 96.341 -160.7957
274.291992 96.388 -162.3528
274.658203 96.401 -164.1177
275.024414 96.378 -166.0596
275.390625 96.318 -168.1616
275.756836 96.220 -170.4211
276.123047 96.081 -172.8506
276.489258 95.895 -175.4700
276.855469 95.653 -178.3005
277.221680 95.344 178.6401
277.587891 94.950 175.3440
277.954102 94.450 171.8130
278.320312 93.820 168.0610
278.686523 93.024 164.1172
279.052734 92.018 160.0295
279.418945 90.734 155.8721
279.785156 89.069 151.7588
280.151367 86.839 147.8831
280.517578 83.649 144.6848
280.883789 78.356 143.8987
281.250000 64.071 178.1428
281.616211 75.761 -63.7610
281.982422 82.384 -62.0610
282.348633 86.072 -64.3318
282.714844 88.610 -67.3982
283.081055 90.528 -70.6948
283.447266 92.056 -74.0442
283.813477 93.316 -77.3777
284.179688 94.382 -80.6687
284.545898 95.299 -83.9111
284.912109 96.098 -87.1050
285.278320 96.801 -90.2512
285.644531 97.424 -93.3499
286.010742 97.978 -96.3987
286.376953 98.473 -99.3984
286.743164 98.916 -102.3506
287.109375 99.313 -105.2571
287.475586 99.667 -108.1167
287.841797 99.981 -110.9231
288.208008 100.257 -113.6648
288.574219 100.499 -116.3279
288.940430 100.710 -118.8994
289.306641 100.894 -121.3691
289.672852 101.053 -123.7295
290.039062 101.191 -125.9731
290.405273 101.310 -128.0911
290.771484 101.416 -130.0745
291.137695 101.512 -131.9187
291.503906 101.604 -133.6274
291.870117 101.697 -135.2158
292.236328 101.795 -136.7051
292.602539 101.899 -138.1184
292.968750 102.012 -139.4778
293.334961 102.136 -140.8032
293.701172 102.270 -142.1196
294.067383 102.417 -143.4575
294.433594 102.575 -144.8528
294.799805 102.740 -146.3362
295.166016 102.905 -147.9214
295.532227 103.065 -149.5989
295.898438 103.216 -151.3401
296.264648 103.357 -153.1077
296.630859 103.491 -154.8711
296.997070 103.622 -156.6160
297.363281 103.755 -158.3450
297.729492 103.893 -160.0740
298.095703 104.039 -161.8210
298.461914 104.194 -163.6050
298.828125 104.359 -165.4465
299.194336 104.538 -167.3752
299.560547 104.730 -169.4338
299.926758 104.935 -171.6743
