* Measurement data measured by REW V5.20.8
* Source: ASIO hdspfire, Analog 1 (1)
* Format: 4M Log Swept Sine, 1 sweep at -12.0 dBFS with no timing reference
* Dated: 13 juin 2022 13:57:19
* REW Settings:
*  C-weighting compensation: Off
*  Target level: 75.0 dB
* Note: ; 
* Measurement: off_0x1400_0_2 juin 13
* Smoothing: None
* Frequency Step: 0.36621094 Hz
* Start Frequency: 0.36621094 Hz
*
* Freq(Hz) SPL(dB) Phase(degrees)
0.366211 20.735 31.3385
0.732422 22.952 41.3568
1.098633 23.394 45.1542
1.464844 22.290 52.1507
1.831055 20.130 69.9189
2.197266 19.048 108.5448
2.563477 22.830 144.4327
2.929688 27.277 153.3701
3.295898 30.091 148.4593
3.662109 31.054 137.1843
4.028320 29.897 122.4815
4.394531 25.516 105.3699
4.760742 10.286 72.8554
5.126953 18.478 -89.1957
5.493164 19.626 -71.9368
5.859375 27.752 -13.3113
6.225586 36.551 -14.3743
6.591797 41.930 -27.4454
6.958008 45.299 -42.0853
7.324219 47.300 -55.1951
7.690430 48.393 -64.4519
8.056641 49.213 -68.2952
8.422852 50.530 -68.8130
8.789062 52.448 -71.6101
9.155273 54.338 -78.9872
9.521484 55.720 -88.9771
9.887695 56.487 -98.3403
10.253906 56.880 -103.6904
10.620117 57.619 -103.4813
10.986328 59.403 -102.1605
11.352539 61.822 -105.8564
11.718750 64.052 -114.7967
12.084961 65.690 -126.2743
12.451172 66.636 -137.5669
12.817383 66.951 -145.9639
13.183594 66.973 -148.5446
13.549805 67.546 -144.6083
13.916016 69.339 -140.2353
14.282227 71.761 -141.7911
14.648438 73.995 -148.9658
15.014648 75.724 -159.2566
15.380859 76.898 -170.7140
15.747070 77.544 178.0490
16.113281 77.721 168.2474
16.479492 77.549 161.1702
16.845703 77.294 157.9691
17.211914 77.402 158.3726
17.578125 78.188 159.3335
17.944336 79.442 157.3156
18.310547 80.695 151.4837
18.676758 81.629 142.9882
19.042969 82.108 133.4048
19.409180 82.104 124.2753
19.775391 81.676 117.1538
20.141602 81.012 113.4965
20.507812 80.467 113.8026
20.874023 80.374 116.3834
21.240234 80.688 118.5425
21.606445 81.088 119.5828
21.972656 81.412 120.9030
22.338867 81.816 123.8728
22.705078 82.592 127.8834
23.071289 83.780 130.6584
23.437500 85.105 130.9882
23.803711 86.305 129.6528
24.169922 87.350 128.1118
24.536133 88.387 127.2379
24.902344 89.600 126.6649
25.268555 91.038 125.1483
25.634766 92.582 121.7641
26.000977 94.075 116.5101
26.367188 95.427 109.9341
26.733398 96.624 102.6151
27.099609 97.693 94.9091
27.465820 98.666 86.9218
27.832031 99.555 78.6166
28.198242 100.352 69.9640
28.564453 101.041 61.0382
28.930664 101.609 52.0221
29.296875 102.062 43.1421
29.663086 102.425 34.5815
30.029297 102.729 26.4143
30.395508 103.002 18.5931
30.761719 103.259 11.0073
31.127930 103.497 3.5720
31.494141 103.709 -3.7114
31.860352 103.897 -10.7693
32.226562 104.073 -17.5247
32.592773 104.252 -23.9692
32.958984 104.449 -30.1852
33.325195 104.671 -36.2978
33.691406 104.907 -42.3972
34.057617 105.143 -48.4932
34.423828 105.370 -54.5334
34.790039 105.588 -60.4568
35.156250 105.801 -66.2354
35.522461 106.013 -71.8749
35.888672 106.223 -77.3857
36.254883 106.432 -82.7611
36.621094 106.642 -87.9927
36.987305 106.862 -93.1108
37.353516 107.094 -98.2067
37.719727 107.328 -103.3943
38.085938 107.541 -108.7286
38.452148 107.703 -114.1353
38.818359 107.798 -119.4066
39.184570 107.833 -124.2723
39.550781 107.846 -128.5260
39.916992 107.890 -132.1578
40.283203 108.012 -135.4107
40.649414 108.223 -138.6802
41.015625 108.495 -142.3026
41.381836 108.778 -146.4001
41.748047 109.026 -150.8794
42.114258 109.218 -155.5318
42.480469 109.352 -160.1389
42.846680 109.440 -164.5376
43.212891 109.506 -168.6417
43.579102 109.568 -172.4352
43.945312 109.644 -175.9554
44.311523 109.742 -179.2762
44.677734 109.873 177.5067
45.043945 110.038 174.2964
45.410156 110.230 171.0172
45.776367 110.441 167.6248
46.142578 110.665 164.0998
46.508789 110.897 160.4318
46.875000 111.131 156.6073
47.241211 111.363 152.6149
47.607422 111.584 148.4599
47.973633 111.788 144.1711
48.339844 111.975 139.7883
48.706055 112.148 135.3333
49.072266 112.312 130.7855
49.438477 112.468 126.0820
49.804688 112.606 121.1495
50.170898 112.711 115.9502
50.537109 112.760 110.5148
50.903320 112.739 104.9444
51.269531 112.637 99.3847
51.635742 112.459 93.9872
52.001953 112.216 88.8734
52.368164 111.924 84.1125
52.734375 111.600 79.7209
53.100586 111.258 75.6795
53.466797 110.905 71.9579
53.833008 110.547 68.5338
54.199219 110.189 65.3971
54.565430 109.838 62.5445
54.931641 109.502 59.9714
55.297852 109.192 57.6595
55.664062 108.922 55.5593
56.030273 108.707 53.5675
56.396484 108.553 51.5205
56.762695 108.455 49.2256
57.128906 108.391 46.5242
57.495117 108.332 43.3518
57.861328 108.246 39.7520
58.227539 108.120 35.8391
58.593750 107.946 31.7368
58.959961 107.726 27.5227
59.326172 107.465 23.2100
59.692383 107.159 18.7725
60.058594 106.799 14.1983
60.424805 106.368 9.5361
60.791016 105.855 4.9030
61.157227 105.261 0.4494
61.523438 104.595 -3.7023
61.889648 103.874 -7.5145
62.255859 103.109 -11.0453
62.622070 102.296 -14.3956
62.988281 101.413 -17.6124
63.354492 100.426 -20.6065
63.720703 99.310 -23.1331
64.086914 98.055 -24.8298
64.453125 96.674 -25.2882
64.819336 95.205 -24.1184
65.185547 93.704 -20.9711
65.551758 92.250 -15.5159
65.917969 90.968 -7.4991
66.284180 90.044 2.8903
66.650391 89.654 14.5090
67.016602 89.820 25.5430
67.382812 90.388 34.6788
67.749023 91.171 41.6007
68.115234 92.048 46.5119
68.481445 92.945 49.6807
68.847656 93.811 51.3524
69.213867 94.605 51.8010
69.580078 95.301 51.3414
69.946289 95.893 50.2842
70.312500 96.387 48.8812
70.678711 96.800 47.3019
71.044922 97.146 45.6471
71.411133 97.439 43.9803
71.777344 97.690 42.3526
72.143555 97.912 40.8000
72.509766 98.120 39.3218
72.875977 98.328 37.8654
73.242188 98.539 36.3433
73.608398 98.748 34.6779
73.974609 98.944 32.8435
74.340820 99.117 30.8760
74.707031 99.265 28.8444
75.073242 99.394 26.8050
75.439453 99.512 24.7692
75.805664 99.626 22.7019
76.171875 99.735 20.5507
76.538086 99.833 18.2816
76.904297 99.912 15.8979
77.270508 99.970 13.4317
77.636719 100.008 10.9162
78.002930 100.030 8.3617
78.369141 100.041 5.7484
78.735352 100.039 3.0398
79.101562 100.018 0.2087
79.467773 99.970 -2.7424
79.833984 99.886 -5.7764
80.200195 99.764 -8.8337
80.566406 99.607 -11.8558
80.932617 99.423 -14.8087
81.298828 99.221 -17.6996
81.665039 99.010 -20.5784
82.031250 98.792 -23.5223
82.397461 98.561 -26.6115
82.763672 98.307 -29.9053
83.129883 98.017 -33.4326
83.496094 97.680 -37.1981
83.862305 97.285 -41.1995
84.228516 96.821 -45.4471
84.594727 96.281 -49.9767
84.960938 95.650 -54.8511
85.327148 94.906 -60.1541
85.693359 94.018 -65.9839
86.059570 92.946 -72.4638
86.425781 91.644 -79.7850
86.791992 90.052 -88.3171
87.158203 88.106 -98.8560
87.524414 85.770 -113.1742
87.890625 83.241 -134.9398
88.256836 81.658 -167.7271
88.623047 82.586 157.5464
88.989258 84.949 133.5618
89.355469 87.307 118.4889
89.721680 89.322 108.0957
90.087891 91.014 100.1299
90.454102 92.449 93.5099
90.820312 93.681 87.6758
91.186523 94.748 82.3132
91.552734 95.672 77.2487
91.918945 96.469 72.4114
92.285156 97.146 67.8098
92.651367 97.722 63.4963
93.017578 98.215 59.5232
93.383789 98.652 55.9014
93.750000 99.055 52.5801
94.116211 99.438 49.4641
94.482422 99.808 46.4567
94.848633 100.158 43.5015
95.214844 100.487 40.5922
95.581055 100.795 37.7484
95.947266 101.087 34.9780
96.313477 101.371 32.2545
96.679688 101.648 29.5231
97.045898 101.916 26.7318
97.412109 102.166 23.8616
97.778320 102.393 20.9326
98.144531 102.591 17.9900
98.510742 102.764 15.0786
98.876953 102.914 12.2247
99.243164 103.048 9.4341
99.609375 103.169 6.7010
99.975586 103.278 4.0179
100.341797 103.377 1.3770
100.708008 103.469 -1.2349
101.074219 103.554 -3.8368
101.440430 103.631 -6.4491
101.806641 103.694 -9.0792
102.172852 103.738 -11.7113
102.539062 103.762 -14.3083
102.905273 103.767 -16.8276
103.271484 103.758 -19.2384
103.637695 103.739 -21.5356
104.003906 103.719 -23.7365
104.370117 103.698 -25.8662
104.736328 103.675 -27.9419
105.102539 103.651 -29.9658
105.468750 103.625 -31.9321
105.834961 103.601 -33.8394
106.201172 103.580 -35.7000
106.567383 103.565 -37.5396
106.933594 103.554 -39.3868
107.299805 103.545 -41.2612
107.666016 103.532 -43.1652
108.032227 103.512 -45.0839
108.398438 103.485 -46.9917
108.764648 103.449 -48.8601
109.130859 103.409 -50.6654
109.497070 103.369 -52.3965
109.863281 103.335 -54.0612
110.229492 103.311 -55.6880
110.595703 103.300 -57.3212
110.961914 103.298 -59.0084
111.328125 103.301 -60.7830
111.694336 103.302 -62.6516
112.060547 103.294 -64.5938
112.426758 103.275 -66.5730
112.792969 103.246 -68.5548
113.159180 103.210 -70.5236
113.525391 103.172 -72.4878
113.891602 103.133 -74.4705
114.257812 103.089 -76.4910
114.624023 103.036 -78.5509
114.990234 102.970 -80.6301
115.356445 102.892 -82.6979
115.722656 102.803 -84.7299
116.088867 102.707 -86.7197
116.455078 102.608 -88.6781
116.821289 102.504 -90.6204
117.187500 102.395 -92.5518
117.553711 102.280 -94.4628
117.919922 102.158 -96.3352
118.286133 102.033 -98.1583
118.652344 101.908 -99.9381
119.018555 101.785 -101.6959
119.384766 101.665 -103.4561
119.750977 101.546 -105.2322
120.117188 101.424 -107.0239
120.483398 101.300 -108.8254
120.849609 101.176 -110.6376
121.215820 101.051 -112.4747
121.582031 100.925 -114.3578
121.948242 100.795 -116.3014
122.314453 100.654 -118.3020
122.680664 100.499 -120.3369
123.046875 100.331 -122.3774
123.413086 100.151 -124.4047
123.779297 99.964 -126.4207
124.145508 99.772 -128.4498
124.511719 99.574 -130.5278
124.877930 99.366 -132.6854
125.244141 99.139 -134.9355
125.610352 98.886 -137.2671
125.976562 98.599 -139.6456
126.342773 98.274 -142.0204
126.708984 97.908 -144.3337
127.075195 97.502 -146.5311
127.441406 97.060 -148.5674
127.807617 96.585 -150.4120
128.173828 96.079 -152.0455
128.540039 95.545 -153.4525
128.906250 94.981 -154.6119
129.272461 94.384 -155.4854
129.638672 93.754 -156.0054
130.004883 93.089 -156.0684
130.371094 92.399 -155.5378
130.737305 91.703 -154.2678
131.103516 91.036 -152.1569
131.469727 90.443 -149.2212
131.835938 89.968 -145.6392
132.202148 89.634 -141.7115
132.568359 89.441 -137.7473
132.934570 89.372 -133.9701
133.300781 89.406 -130.5177
133.666992 89.528 -127.5024
134.033203 89.713 -125.0322
134.399414 89.931 -123.1653
134.765625 90.147 -121.8494
135.131836 90.335 -120.9146
135.498047 90.491 -120.1343
135.864258 90.629 -119.3214
136.230469 90.781 -118.4127
136.596680 90.970 -117.4918
136.962891 91.208 -116.7306
137.329102 91.483 -116.2863
137.695312 91.776 -116.2264
138.061523 92.067 -116.5239
138.427734 92.346 -117.1030
138.793945 92.613 -117.8948
139.160156 92.872 -118.8674
139.526367 93.129 -120.0266
139.892578 93.382 -121.3960
140.258789 93.629 -122.9963
140.625000 93.866 -124.8361
140.991211 94.089 -126.9152
141.357422 94.294 -129.2321
141.723633 94.478 -131.7869
142.089844 94.637 -134.5781
142.456055 94.765 -137.5945
142.822266 94.857 -140.8108
143.188477 94.911 -144.1920
143.554688 94.926 -147.7041
143.920898 94.906 -151.3253
144.287109 94.852 -155.0509
144.653320 94.766 -158.8895
145.019531 94.646 -162.8524
145.385742 94.492 -166.9460
145.751953 94.302 -171.1721
146.118164 94.076 -175.5356
146.484375 93.815 179.9468
146.850586 93.516 175.2457
147.216797 93.179 170.3274
147.583008 92.798 165.1654
147.949219 92.371 159.7448
148.315430 91.902 154.0469
148.681641 91.398 148.0234
149.047852 90.872 141.5682
149.414062 90.334 134.5100
149.780273 89.794 126.6356
150.146484 89.259 117.7412
150.512695 88.741 107.6876
150.878906 88.266 96.4517
151.245117 87.876 84.1666
151.611328 87.629 71.1479
151.977539 87.575 57.8707
152.343750 87.738 44.8691
152.709961 88.108 32.5886
153.076172 88.643 21.2798
153.442383 89.290 10.9954
153.808594 89.995 1.6603
154.174805 90.718 -6.8528
154.541016 91.427 -14.6719
154.907227 92.104 -21.9042
155.273438 92.736 -28.6278
155.639648 93.318 -34.8937
156.005859 93.852 -40.7318
156.372070 94.343 -46.1642
156.738281 94.801 -51.2244
157.104492 95.238 -55.9714
157.470703 95.662 -60.4926
157.836914 96.076 -64.8888
158.203125 96.477 -69.2493
158.569336 96.856 -73.6270
158.935547 97.203 -78.0316
159.301758 97.513 -82.4375
159.667969 97.782 -86.8019
160.034180 98.011 -91.0812
160.400391 98.205 -95.2404
160.766602 98.368 -99.2543
161.132812 98.507 -103.1058
161.499023 98.628 -106.7876
161.865234 98.739 -110.3085
162.231445 98.848 -113.6985
162.597656 98.959 -117.0072
162.963867 99.073 -120.2891
163.330078 99.185 -123.5833
163.696289 99.289 -126.8990
164.062500 99.383 -130.2191
164.428711 99.466 -133.5160
164.794922 99.542 -136.7738
165.161133 99.618 -140.0031
165.527344 99.696 -143.2384
165.893555 99.775 -146.5225
166.259766 99.854 -149.8890
166.625977 99.925 -153.3538
166.992188 99.985 -156.9164
167.358398 100.030 -160.5713
167.724609 100.058 -164.3125
168.090820 100.064 -168.1328
168.457031 100.045 -172.0179
168.823242 99.997 -175.9415
169.189453 99.919 -179.8663
169.555664 99.810 176.2483
169.921875 99.674 172.4362
170.288086 99.513 168.7191
170.654297 99.332 165.1082
171.020508 99.132 161.6106
171.386719 98.916 158.2373
171.752930 98.685 155.0046
172.119141 98.445 151.9303
172.485352 98.199 149.0227
172.851562 97.955 146.2742
173.217773 97.717 143.6614
173.583984 97.488 141.1525
173.950195 97.266 138.7201
174.316406 97.050 136.3519
174.682617 96.837 134.0520
175.048828 96.627 131.8359
175.415039 96.422 129.7240
175.781250 96.224 127.7322
176.147461 96.037 125.8711
176.513672 95.867 124.1444
176.879883 95.719 122.5496
177.246094 95.599 121.0734
177.612305 95.513 119.6892
177.978516 95.467 118.3561
178.344727 95.463 117.0232
178.710938 95.501 115.6394
179.077148 95.581 114.1602
179.443359 95.698 112.5482
179.809570 95.852 110.7712
180.175781 96.036 108.7990
180.541992 96.248 106.6060
180.908203 96.480 104.1766
181.274414 96.726 101.5090
181.640625 96.982 98.6134
182.006836 97.242 95.5048
182.373047 97.505 92.1970
182.739258 97.767 88.7017
183.105469 98.026 85.0308
183.471680 98.279 81.2007
183.837891 98.523 77.2335
184.204102 98.758 73.1523
184.570312 98.984 68.9763
184.936523 99.201 64.7173
185.302734 99.409 60.3837
185.668945 99.606 55.9850
186.035156 99.792 51.5371
186.401367 99.966 47.0615
186.767578 100.129 42.5781
187.133789 100.286 38.0978
187.500000 100.437 33.6184
187.866211 100.584 29.1268
188.232422 100.727 24.6074
188.598633 100.863 20.0510
188.964844 100.988 15.4608
189.331055 101.101 10.8505
189.697266 101.199 6.2395
190.063477 101.282 1.6483
190.429688 101.351 -2.9073
190.795898 101.407 -7.4171
191.162109 101.452 -11.8755
191.528320 101.487 -16.2819
191.894531 101.512 -20.6388
192.260742 101.527 -24.9506
192.626953 101.532 -29.2220
192.993164 101.526 -33.4552
193.359375 101.506 -37.6481
193.725586 101.472 -41.7930
194.091797 101.423 -45.8776
194.458008 101.358 -49.8867
194.824219 101.278 -53.8035
195.190430 101.183 -57.6129
195.556641 101.077 -61.3038
195.922852 100.961 -64.8701
196.289062 100.837 -68.3101
196.655273 100.709 -71.6248
197.021484 100.577 -74.8140
197.387695 100.443 -77.8748
197.753906 100.311 -80.8071
198.120117 100.185 -83.6179
198.486328 100.067 -86.3274
198.852539 99.962 -88.9702
199.218750 99.870 -91.5874
199.584961 99.787 -94.2139
199.951172 99.709 -96.8711
200.317383 99.634 -99.5647
200.683594 99.557 -102.2935
201.049805 99.479 -105.0581
201.416016 99.397 -107.8672
201.782227 99.309 -110.7334
202.148438 99.213 -113.6638
202.514648 99.103 -116.6558
202.880859 98.976 -119.6953
203.247070 98.831 -122.7637
203.613281 98.668 -125.8484
203.979492 98.485 -128.9446
204.345703 98.282 -132.0532
204.711914 98.058 -135.1719
205.078125 97.808 -138.2913
205.444336 97.532 -141.3938
205.810547 97.230 -144.4648
206.176758 96.903 -147.5022
206.542969 96.551 -150.5195
206.909180 96.170 -153.5405
207.275391 95.754 -156.5840
207.641602 95.293 -159.6489
208.007812 94.776 -162.7065
208.374023 94.192 -165.7014
208.740234 93.532 -168.5596
209.106445 92.787 -171.1914
209.472656 91.949 -173.4878
209.838867 91.009 -175.3047
210.205078 89.961 -176.4443
210.571289 88.803 -176.6372
210.937500 87.550 -175.5396
211.303711 86.238 -172.7502
211.669922 84.935 -167.8687
212.036133 83.757 -160.6243
212.402344 82.864 -151.1304
212.768555 82.416 -140.1934
213.134766 82.481 -129.2881
213.500977 82.974 -119.8762
213.867188 83.712 -112.6782
214.233398 84.524 -107.6255
214.599609 85.303 -104.2510
214.965820 86.003 -102.0215
215.332031 86.612 -100.4912
215.698242 87.143 -99.3413
216.064453 87.615 -98.3701
216.430664 88.049 -97.4653
216.796875 88.465 -96.5796
217.163086 88.879 -95.7144
217.529297 89.307 -94.9160
217.895508 89.755 -94.2668
218.261719 90.223 -93.8640
218.627930 90.701 -93.7847
218.994141 91.174 -94.0566
219.360352 91.629 -94.6492
219.726562 92.057 -95.4946
220.092773 92.457 -96.5212
220.458984 92.832 -97.6848
220.825195 93.188 -98.9795
221.191406 93.522 -100.4199
221.557617 93.831 -102.0122
221.923828 94.107 -103.7258
222.290039 94.345 -105.4946
222.656250 94.547 -107.2388
223.022461 94.722 -108.8999
223.388672 94.882 -110.4639
223.754883 95.034 -111.9592
224.121094 95.182 -113.4316
224.487305 95.321 -114.9087
224.853516 95.448 -116.3823
225.219727 95.562 -117.8186
225.585938 95.667 -119.1855
225.952148 95.771 -120.4775
226.318359 95.881 -121.7227
226.684570 95.998 -122.9692
227.050781 96.122 -124.2632
227.416992 96.249 -125.6301
227.783203 96.374 -127.0796
228.149414 96.495 -128.6147
228.515625 96.612 -130.2456
228.881836 96.720 -131.9873
229.248047 96.815 -133.8550
229.614258 96.891 -135.8501
229.980469 96.942 -137.9585
230.346680 96.960 -140.1506
230.712891 96.943 -142.3906
231.079102 96.887 -144.6401
231.445312 96.789 -146.8613
231.811523 96.646 -149.0095
232.177734 96.455 -151.0244
232.543945 96.216 -152.8276
232.910156 95.931 -154.3220
233.276367 95.609 -155.4067
233.642578 95.266 -155.9961
234.008789 94.924 -156.0444
234.375000 94.604 -155.5605
234.741211 94.328 -154.6094
235.107422 94.113 -153.2969
235.473633 93.966 -151.7480
235.839844 93.891 -150.0923
236.206055 93.886 -148.4575
236.572266 93.941 -146.9590
236.938477 94.043 -145.6870
237.304688 94.174 -144.6841
237.670898 94.313 -143.9343
238.037109 94.446 -143.3677
238.403320 94.565 -142.8804
238.769531 94.673 -142.3647
239.135742 94.779 -141.7393
239.501953 94.896 -140.9712
239.868164 95.039 -140.0789
240.234375 95.216 -139.1174
240.600586 95.431 -138.1489
240.966797 95.684 -137.2212
241.333008 95.975 -136.3638
241.699219 96.305 -135.6045
242.065430 96.678 -134.9897
242.431641 97.095 -134.5928
242.797852 97.553 -134.4995
243.164062 98.042 -134.7900
243.530273 98.550 -135.5176
243.896484 99.062 -136.7061
244.262695 99.564 -138.3518
244.628906 100.043 -140.4321
244.995117 100.488 -142.9067
245.361328 100.890 -145.7207
245.727539 101.240 -148.8071
246.093750 101.535 -152.0940
246.459961 101.774 -155.5107
246.826172 101.958 -158.9976
247.192383 102.090 -162.5076
247.558594 102.173 -166.0049
247.924805 102.209 -169.4614
248.291016 102.200 -172.8516
248.657227 102.148 -176.1494
249.023438 102.054 -179.3281
249.389648 101.919 177.6399
249.755859 101.745 174.7849
250.122070 101.534 172.1409
250.488281 101.289 169.7451
250.854492 101.014 167.6372
251.220703 100.713 165.8550
251.586914 100.394 164.4324
251.953125 100.062 163.4031
252.319336 99.726 162.8054
252.685547 99.395 162.6860
253.051758 99.084 163.0918
253.417969 98.816 164.0454
253.784180 98.616 165.5149
254.150391 98.510 167.3899
254.516602 98.519 169.4880
254.882812 98.649 171.5903
255.249023 98.896 173.4844
255.615234 99.246 174.9932
255.981445 99.682 175.9832
256.347656 100.182 176.3623
256.713867 100.725 176.0757
257.080078 101.290 175.1042
257.446289 101.858 173.4573
257.812500 102.413 171.1633
258.178711 102.942 168.2612
258.544922 103.432 164.7954
258.911133 103.875 160.8108
259.277344 104.262 156.3540
259.643555 104.587 151.4702
260.009766 104.845 146.2019
260.375977 105.030 140.5845
260.742188 105.138 134.6475
261.108398 105.162 128.4177
261.474609 105.094 121.9204
261.840820 104.926 115.1860
262.207031 104.648 108.2549
262.573242 104.249 101.1775
262.939453 103.719 94.0146
263.305664 103.046 86.8342
263.671875 102.219 79.7090
264.038086 101.224 72.7122
264.404297 100.044 65.9138
264.770508 98.655 59.3796
265.136719 97.020 53.1711
265.502930 95.079 47.3418
265.869141 92.729 41.9412
266.235352 89.762 37.0195
266.601562 85.691 32.6609
266.967773 78.867 29.2629
267.333984 57.467 -172.9106
267.700195 79.364 -160.6802
268.066406 84.636 -163.1355
268.432617 87.638 -165.6763
268.798828 89.692 -168.0217
269.165039 91.232 -170.1182
269.531250 92.461 -171.9653
269.897461 93.495 -173.6003
270.263672 94.404 -175.0952
270.629883 95.232 -176.5435
270.996094 96.005 -178.0398
271.362305 96.735 -179.6619
271.728516 97.428 178.5374
272.094727 98.088 176.5259
272.460938 98.714 174.2842
272.827148 99.307 171.7981
273.193359 99.865 169.0566
273.559570 100.384 166.0537
273.925781 100.859 162.7917
274.291992 101.285 159.2817
274.658203 101.656 155.5454
275.024414 101.967 151.6160
275.390625 102.210 147.5400
275.756836 102.381 143.3792
276.123047 102.477 139.2092
276.489258 102.496 135.1157
276.855469 102.442 131.1870
277.221680 102.321 127.5039
277.587891 102.141 124.1338
277.954102 101.912 121.1284
278.320312 101.644 118.5254
278.686523 101.346 116.3560
279.052734 101.028 114.6509
279.418945 100.704 113.4346
279.785156 100.387 112.7188
280.151367 100.093 112.4878
280.517578 99.837 112.6924
280.883789 99.633 113.2559
281.250000 99.487 114.0901
281.616211 99.403 115.1094
281.982422 99.383 116.2349
282.348633 99.429 117.3879
282.714844 99.539 118.4844
283.081055 99.709 119.4385
283.447266 99.931 120.1726
283.813477 100.193 120.6343
284.179688 100.486 120.7988
284.545898 100.796 120.6648
284.912109 101.117 120.2446
285.278320 101.441 119.5569
285.644531 101.762 118.6211
286.010742 102.076 117.4619
286.376953 102.378 116.1091
286.743164 102.666 114.5991
287.109375 102.937 112.9692
287.475586 103.194 111.2537
287.841797 103.439 109.4766
288.208008 103.674 107.6523
288.574219 103.901 105.7874
288.940430 104.121 103.8867
289.306641 104.336 101.9575
289.672852 104.549 100.0063
290.039062 104.760 98.0383
290.405273 104.975 96.0503
290.771484 105.196 94.0273
291.137695 105.427 91.9446
291.503906 105.667 89.7717
291.870117 105.917 87.4775
292.236328 106.173 85.0371
292.602539 106.433 82.4319
292.968750 106.694 79.6516
293.334961 106.951 76.6902
293.701172 107.204 73.5425
294.067383 107.450 70.2024
294.433594 107.685 66.6619
294.799805 107.907 62.9114
295.166016 108.111 58.9470
295.532227 108.292 54.7734
295.898438 108.444 50.4048
296.264648 108.564 45.8652
296.630859 108.648 41.1848
296.997070 108.694 36.3938
297.363281 108.703 31.5205
297.729492 108.674 26.5891
298.095703 108.607 21.6189
298.461914 108.505 16.6267
298.828125 108.366 11.6270
299.194336 108.192 6.6301
299.560547 107.983 1.6448
299.926758 107.741 -3.3237
