* Measurement data measured by REW V5.20.8
* Source: ASIO hdspfire, Analog 1 (1)
* Format: 4M Log Swept Sine, 1 sweep at -12.0 dBFS with no timing reference
* Dated: 13 juin 2022 13:49:32
* REW Settings:
*  C-weighting compensation: Off
*  Target level: 75.0 dB
* Note: ; 
* Measurement: off_0x1400_1_1 juin 13
* Smoothing: None
* Frequency Step: 0.36621094 Hz
* Start Frequency: 0.36621094 Hz
*
* Freq(Hz) SPL(dB) Phase(degrees)
0.366211 9.268 70.2287
0.732422 14.105 33.8824
1.098633 15.377 5.6257
1.464844 13.730 -12.8569
1.831055 8.950 3.5876
2.197266 13.269 52.8776
2.563477 18.771 52.7414
2.929688 21.512 44.6189
3.295898 22.766 39.9563
3.662109 23.562 41.6912
4.028320 24.781 48.6496
4.394531 26.969 57.3776
4.760742 30.337 62.3655
5.126953 34.318 58.6588
5.493164 38.085 46.5534
5.859375 41.245 28.9799
6.225586 43.696 8.6096
6.591797 45.418 -12.5037
6.958008 46.407 -32.4169
7.324219 46.697 -48.6566
7.690430 46.595 -57.7719
8.056641 47.114 -58.2247
8.422852 49.153 -57.8739
8.789062 51.814 -64.7620
9.155273 54.022 -77.2910
9.521484 55.421 -91.4290
9.887695 55.988 -103.4541
10.253906 56.009 -109.2176
10.620117 56.504 -106.2500
10.986328 58.552 -101.8902
11.352539 61.329 -105.2195
11.718750 63.681 -115.0213
12.084961 65.226 -127.3374
12.451172 65.907 -138.8887
12.817383 65.829 -146.2233
13.183594 65.546 -145.2694
13.549805 66.421 -136.8876
13.916016 68.865 -132.3278
14.282227 71.563 -136.5519
14.648438 73.729 -146.3123
15.014648 75.212 -158.4503
15.380859 76.035 -170.9955
15.747070 76.246 177.5445
16.113281 75.927 168.7687
16.479492 75.297 164.6425
16.845703 74.912 166.4126
17.211914 75.481 171.0796
17.578125 76.933 172.3422
17.944336 78.528 167.9746
18.310547 79.762 159.5797
18.676758 80.449 149.2321
19.042969 80.529 138.6736
19.409180 79.991 129.6111
19.775391 78.892 124.1778
20.141602 77.512 125.0666
20.507812 76.597 133.5070
20.874023 76.873 144.9589
21.240234 78.021 153.5843
21.606445 79.446 159.1469
21.972656 81.039 162.9489
22.338867 82.826 164.7238
22.705078 84.669 163.7990
23.071289 86.359 160.5116
23.437500 87.789 156.0162
23.803711 88.972 151.5631
24.169922 90.046 147.9457
24.536133 91.192 145.0905
24.902344 92.515 142.0739
25.268555 93.977 137.8409
25.634766 95.451 131.9452
26.000977 96.827 124.5791
26.367188 98.048 116.1983
26.733398 99.106 107.2286
27.099609 100.014 97.9600
27.465820 100.789 88.5596
27.832031 101.442 79.1373
28.198242 101.981 69.8082
28.564453 102.417 60.7161
28.930664 102.775 52.0018
29.296875 103.088 43.7321
29.663086 103.393 35.8335
30.029297 103.715 28.0935
30.395508 104.048 20.2581
30.761719 104.364 12.1721
31.127930 104.625 3.8618
31.494141 104.806 -4.4835
31.860352 104.907 -12.6016
32.226562 104.950 -20.2698
32.592773 104.970 -27.3983
32.958984 104.999 -34.0630
33.325195 105.058 -40.4469
33.691406 105.141 -46.7205
34.057617 105.229 -52.9470
34.423828 105.305 -59.0765
34.790039 105.368 -65.0123
35.156250 105.427 -70.6921
35.522461 105.494 -76.1266
35.888672 105.575 -81.3795
36.254883 105.668 -86.5176
36.621094 105.766 -91.5750
36.987305 105.865 -96.5580
37.353516 105.960 -101.4722
37.719727 106.049 -106.3329
38.085938 106.123 -111.1448
38.452148 106.172 -115.8666
38.818359 106.194 -120.4004
39.184570 106.197 -124.6306
39.550781 106.206 -128.5007
39.916992 106.248 -132.0829
40.283203 106.342 -135.5809
40.649414 106.480 -139.2389
41.015625 106.631 -143.2145
41.381836 106.759 -147.5083
41.748047 106.836 -151.9816
42.114258 106.852 -156.4311
42.480469 106.817 -160.6694
42.846680 106.751 -164.5820
43.212891 106.682 -168.1506
43.579102 106.626 -171.4388
43.945312 106.592 -174.5523
44.311523 106.576 -177.5922
44.677734 106.575 179.3768
45.043945 106.580 176.3358
45.410156 106.583 173.3016
45.776367 106.584 170.3038
46.142578 106.585 167.3586
46.508789 106.589 164.4531
46.875000 106.598 161.5492
47.241211 106.607 158.6093
47.607422 106.606 155.6262
47.973633 106.587 152.6371
48.339844 106.549 149.7079
48.706055 106.496 146.8979
49.072266 106.439 144.2241
49.438477 106.386 141.6511
49.804688 106.339 139.1149
50.170898 106.293 136.5649
50.537109 106.239 133.9935
50.903320 106.173 131.4316
51.269531 106.096 128.9167
51.635742 106.012 126.4586
52.001953 105.926 124.0269
52.368164 105.837 121.5722
52.734375 105.737 119.0623
53.100586 105.617 116.5089
53.466797 105.470 113.9675
53.833008 105.298 111.5108
54.199219 105.108 109.1926
54.565430 104.912 107.0198
54.931641 104.723 104.9439
55.297852 104.543 102.8762
55.664062 104.368 100.7198
56.030273 104.186 98.4054
56.396484 103.976 95.9184
56.762695 103.722 93.3091
57.128906 103.409 90.6832
57.495117 103.033 88.1765
57.861328 102.597 85.9189
58.227539 102.112 84.0034
58.593750 101.587 82.4770
58.959961 101.023 81.3722
59.326172 100.415 80.7708
59.692383 99.760 80.8622
60.058594 99.079 81.9420
60.424805 98.427 84.2972
60.791016 97.903 87.9742
61.157227 97.602 92.5635
61.523438 97.561 97.2879
61.889648 97.739 101.4401
62.255859 98.050 104.7239
62.622070 98.436 107.1876
62.988281 98.869 108.9576
63.354492 99.341 110.0662
63.720703 99.838 110.4622
64.086914 100.331 110.1201
64.453125 100.786 109.1229
64.819336 101.181 107.6561
65.185547 101.515 105.9368
65.551758 101.799 104.1311
65.917969 102.054 102.3007
66.284180 102.294 100.4066
66.650391 102.523 98.3645
67.016602 102.732 96.1185
67.382812 102.907 93.6844
67.749023 103.038 91.1428
68.115234 103.125 88.5941
68.481445 103.179 86.1089
68.847656 103.208 83.7026
69.213867 103.221 81.3452
69.580078 103.217 78.9995
69.946289 103.190 76.6600
70.312500 103.136 74.3649
70.678711 103.056 72.1760
71.044922 102.958 70.1425
71.411133 102.852 68.2708
71.777344 102.749 66.5207
72.143555 102.649 64.8306
72.509766 102.550 63.1530
72.875977 102.445 61.4762
73.242188 102.329 59.8201
73.608398 102.202 58.2136
73.974609 102.066 56.6729
74.340820 101.925 55.1937
74.707031 101.780 53.7612
75.073242 101.631 52.3654
75.439453 101.473 51.0105
75.805664 101.308 49.7086
76.171875 101.137 48.4642
76.538086 100.962 47.2631
76.904297 100.780 46.0731
77.270508 100.592 44.8615
77.636719 100.387 43.6147
78.002930 100.160 42.3472
78.369141 99.902 41.0954
78.735352 99.609 39.9036
79.101562 99.274 38.8175
79.467773 98.892 37.8981
79.833984 98.454 37.2508
80.200195 97.955 37.0472
80.566406 97.410 37.5093
80.932617 96.852 38.8315
81.298828 96.336 41.0543
81.665039 95.912 43.9765
82.031250 95.592 47.2364
82.397461 95.346 50.5695
82.763672 95.128 54.0293
83.129883 94.921 57.9702
83.496094 94.772 62.7861
83.862305 94.781 68.5364
84.228516 95.041 74.7168
84.594727 95.572 80.4784
84.960938 96.310 85.1486
85.327148 97.163 88.4905
85.693359 98.062 90.5662
86.059570 98.962 91.5203
86.425781 99.833 91.4896
86.791992 100.652 90.6139
87.158203 101.398 89.0603
87.524414 102.060 87.0200
87.890625 102.640 84.6800
88.256836 103.143 82.1924
88.623047 103.585 79.6581
88.989258 103.977 77.1299
89.355469 104.332 74.6279
89.721680 104.658 72.1537
90.087891 104.963 69.6955
90.454102 105.252 67.2255
90.820312 105.528 64.7023
91.186523 105.788 62.0851
91.552734 106.024 59.3565
91.918945 106.227 56.5397
92.285156 106.390 53.6974
92.651367 106.515 50.9108
93.017578 106.611 48.2484
93.383789 106.687 45.7404
93.750000 106.756 43.3716
94.116211 106.825 41.0975
94.482422 106.896 38.8719
94.848633 106.966 36.6676
95.214844 107.032 34.4780
95.581055 107.096 32.3036
95.947266 107.157 30.1370
96.313477 107.218 27.9578
96.679688 107.274 25.7430
97.045898 107.322 23.4810
97.412109 107.359 21.1797
97.778320 107.382 18.8636
98.144531 107.389 16.5615
98.510742 107.383 14.2963
98.876953 107.367 12.0802
99.243164 107.342 9.9164
99.609375 107.313 7.8018
99.975586 107.280 5.7278
100.341797 107.246 3.6796
100.708008 107.210 1.6367
101.074219 107.172 -0.4194
101.440430 107.126 -2.4951
101.806641 107.068 -4.5771
102.172852 106.995 -6.6334
102.539062 106.908 -8.6251
102.905273 106.812 -10.5212
103.271484 106.712 -12.3107
103.637695 106.613 -14.0048
104.003906 106.522 -15.6308
104.370117 106.439 -17.2222
104.736328 106.364 -18.8110
105.102539 106.295 -20.4232
105.468750 106.229 -22.0773
105.834961 106.161 -23.7811
106.201172 106.088 -25.5292
106.567383 106.006 -27.3046
106.933594 105.914 -29.0837
107.299805 105.813 -30.8470
107.666016 105.705 -32.5850
108.032227 105.591 -34.2973
108.398438 105.474 -35.9873
108.764648 105.352 -37.6541
109.130859 105.224 -39.2925
109.497070 105.094 -40.9001
109.863281 104.963 -42.4855
110.229492 104.832 -44.0696
110.595703 104.699 -45.6761
110.961914 104.558 -47.3157
111.328125 104.406 -48.9764
111.694336 104.240 -50.6270
112.060547 104.061 -52.2333
112.426758 103.872 -53.7761
112.792969 103.680 -55.2589
113.159180 103.484 -56.7020
113.525391 103.286 -58.1257
113.891602 103.081 -59.5361
114.257812 102.866 -60.9228
114.624023 102.641 -62.2665
114.990234 102.404 -63.5488
115.356445 102.157 -64.7553
115.722656 101.902 -65.8732
116.088867 101.639 -66.8867
116.455078 101.371 -67.7797
116.821289 101.103 -68.5450
117.187500 100.839 -69.1909
117.553711 100.582 -69.7401
117.919922 100.331 -70.2153
118.286133 100.085 -70.6248
118.652344 99.843 -70.9598
119.018555 99.607 -71.2065
119.384766 99.382 -71.3665
119.750977 99.174 -71.4669
120.117188 98.983 -71.5555
120.483398 98.809 -71.6811
120.849609 98.645 -71.8762
121.215820 98.487 -72.1528
121.582031 98.329 -72.5091
121.948242 98.166 -72.9398
122.314453 97.996 -73.4390
122.680664 97.814 -73.9977
123.046875 97.617 -74.5996
123.413086 97.399 -75.2206
123.779297 97.160 -75.8323
124.145508 96.897 -76.4044
124.511719 96.609 -76.9038
124.877930 96.293 -77.2905
125.244141 95.951 -77.5151
125.610352 95.584 -77.5208
125.976562 95.197 -77.2491
126.342773 94.797 -76.6476
126.708984 94.394 -75.6763
127.075195 94.003 -74.3134
127.441406 93.635 -72.5626
127.807617 93.304 -70.4561
128.173828 93.021 -68.0513
128.540039 92.794 -65.4185
128.906250 92.626 -62.6277
129.272461 92.521 -59.7445
129.638672 92.479 -56.8384
130.004883 92.502 -53.9901
130.371094 92.584 -51.2835
130.737305 92.717 -48.7857
131.103516 92.890 -46.5325
131.469727 93.096 -44.5349
131.835938 93.327 -42.7990
132.202148 93.579 -41.3417
132.568359 93.844 -40.1843
132.934570 94.109 -39.3295
133.300781 94.364 -38.7422
133.666992 94.599 -38.3513
134.033203 94.815 -38.0723
134.399414 95.015 -37.8397
134.765625 95.209 -37.6270
135.131836 95.402 -37.4457
135.498047 95.597 -37.3234
135.864258 95.792 -37.2772
136.230469 95.984 -37.3007
136.596680 96.172 -37.3705
136.962891 96.359 -37.4648
137.329102 96.550 -37.5801
137.695312 96.749 -37.7361
138.061523 96.960 -37.9694
138.427734 97.181 -38.3218
138.793945 97.410 -38.8318
139.160156 97.641 -39.5306
139.526367 97.869 -40.4395
139.892578 98.085 -41.5651
140.258789 98.279 -42.8943
140.625000 98.444 -44.3923
140.991211 98.574 -46.0069
141.357422 98.665 -47.6782
141.723633 98.719 -49.3479
142.089844 98.738 -50.9651
142.456055 98.726 -52.4875
142.822266 98.686 -53.8809
143.188477 98.625 -55.1202
143.554688 98.551 -56.1937
143.920898 98.469 -57.1055
144.287109 98.384 -57.8730
144.653320 98.298 -58.5168
145.019531 98.211 -59.0496
145.385742 98.122 -59.4698
145.751953 98.031 -59.7644
146.118164 97.941 -59.9156
146.484375 97.853 -59.9048
146.850586 97.772 -59.7122
147.216797 97.705 -59.3180
147.583008 97.660 -58.7137
147.949219 97.650 -57.9224
148.315430 97.688 -57.0146
148.681641 97.778 -56.0998
149.047852 97.917 -55.2924
149.414062 98.095 -54.6714
149.780273 98.298 -54.2652
150.146484 98.519 -54.0663
150.512695 98.753 -54.0632
150.878906 98.999 -54.2610
151.245117 99.251 -54.6793
151.611328 99.503 -55.3323
151.977539 99.747 -56.2101
152.343750 99.974 -57.2753
152.709961 100.182 -58.4758
153.076172 100.372 -59.7641
153.442383 100.546 -61.1116
153.808594 100.708 -62.5105
154.174805 100.858 -63.9642
154.541016 100.996 -65.4741
154.907227 101.121 -67.0296
155.273438 101.232 -68.6084
155.639648 101.330 -70.1864
156.005859 101.421 -71.7506
156.372070 101.510 -73.3104
156.738281 101.599 -74.8969
157.104492 101.689 -76.5522
157.470703 101.776 -78.3110
157.836914 101.851 -80.1868
158.203125 101.909 -82.1677
158.569336 101.944 -84.2236
158.935547 101.954 -86.3181
159.301758 101.938 -88.4160
159.667969 101.895 -90.4836
160.034180 101.827 -92.4850
160.400391 101.737 -94.3800
160.766602 101.629 -96.1305
161.132812 101.512 -97.7141
161.499023 101.394 -99.1356
161.865234 101.284 -100.4282
162.231445 101.184 -101.6376
162.597656 101.093 -102.8010
162.963867 101.010 -103.9327
163.330078 100.933 -105.0289
163.696289 100.866 -106.0869
164.062500 100.814 -107.1254
164.428711 100.779 -108.1900
164.794922 100.762 -109.3409
165.161133 100.755 -110.6289
165.527344 100.750 -112.0778
165.893555 100.739 -113.6804
166.259766 100.715 -115.4078
166.625977 100.674 -117.2233
166.992188 100.617 -119.0932
167.358398 100.544 -120.9913
167.724609 100.457 -122.8994
168.090820 100.359 -124.8064
168.457031 100.254 -126.7094
168.823242 100.144 -128.6169
169.189453 100.032 -130.5515
169.555664 99.920 -132.5490
169.921875 99.806 -134.6528
170.288086 99.684 -136.9028
170.654297 99.546 -139.3213
171.020508 99.382 -141.9045
171.386719 99.183 -144.6206
171.752930 98.943 -147.4170
172.119141 98.659 -150.2339
172.485352 98.335 -153.0199
172.851562 97.974 -155.7407
173.217773 97.580 -158.3804
173.583984 97.157 -160.9358
173.950195 96.708 -163.4082
174.316406 96.236 -165.8008
174.682617 95.745 -168.1259
175.048828 95.240 -170.4152
175.415039 94.724 -172.7278
175.781250 94.197 -175.1476
176.147461 93.654 -177.7698
176.513672 93.084 179.3132
176.879883 92.475 176.0182
177.246094 91.811 172.2639
177.612305 91.079 167.9541
177.978516 90.266 162.9535
178.344727 89.361 157.0593
178.710938 88.358 149.9617
179.077148 87.266 141.1921
179.443359 86.128 130.0823
179.809570 85.067 115.8420
180.175781 84.327 98.0557
180.541992 84.225 77.7244
180.908203 84.886 57.5107
181.274414 86.092 39.7936
181.640625 87.514 25.1765
182.006836 88.934 13.1371
182.373047 90.253 2.9558
182.739258 91.439 -5.9417
183.105469 92.490 -13.9596
183.471680 93.415 -21.3788
183.837891 94.223 -28.3975
184.204102 94.920 -35.1581
184.570312 95.512 -41.7598
184.936523 96.000 -48.2677
185.302734 96.382 -54.7155
185.668945 96.656 -61.1082
186.035156 96.818 -67.4243
186.401367 96.866 -73.6195
186.767578 96.799 -79.6329
187.133789 96.620 -85.3959
187.500000 96.332 -90.8430
187.866211 95.941 -95.9202
188.232422 95.451 -100.5887
188.598633 94.864 -104.8197
188.964844 94.180 -108.5801
189.331055 93.390 -111.8142
189.697266 92.486 -114.4236
190.063477 91.455 -116.2505
190.429688 90.286 -117.0524
190.795898 88.967 -116.4568
191.162109 87.501 -113.8687
191.528320 85.932 -108.3483
191.894531 84.436 -98.6658
192.260742 83.427 -84.3036
192.626953 83.395 -67.6868
192.993164 84.316 -53.4380
193.359375 85.682 -43.7479
193.725586 87.089 -37.9299
194.091797 88.375 -34.6742
194.458008 89.508 -33.0015
194.824219 90.502 -32.3097
195.190430 91.375 -32.2428
195.556641 92.148 -32.5825
195.922852 92.837 -33.1857
196.289062 93.457 -33.9553
196.655273 94.020 -34.8297
197.021484 94.538 -35.7740
197.387695 95.020 -36.7726
197.753906 95.471 -37.8180
198.120117 95.895 -38.9060
198.486328 96.296 -40.0333
198.852539 96.677 -41.2014
199.218750 97.041 -42.4160
199.584961 97.388 -43.6871
199.951172 97.718 -45.0221
200.317383 98.030 -46.4215
200.683594 98.321 -47.8779
201.049805 98.591 -49.3771
201.416016 98.841 -50.9031
201.782227 99.069 -52.4415
202.148438 99.277 -53.9824
202.514648 99.466 -55.5188
202.880859 99.636 -57.0449
203.247070 99.786 -58.5518
203.613281 99.917 -60.0237
203.979492 100.027 -61.4384
204.345703 100.119 -62.7676
204.711914 100.194 -63.9841
205.078125 100.258 -65.0674
205.444336 100.317 -66.0092
205.810547 100.376 -66.8138
206.176758 100.440 -67.4971
206.542969 100.512 -68.0795
206.909180 100.595 -68.5839
207.275391 100.690 -69.0343
207.641602 100.798 -69.4552
208.007812 100.920 -69.8723
208.374023 101.054 -70.3097
208.740234 101.198 -70.7876
209.106445 101.350 -71.3182
209.472656 101.506 -71.9067
209.838867 101.664 -72.5516
210.205078 101.822 -73.2480
210.571289 101.980 -73.9911
210.937500 102.137 -74.7767
211.303711 102.293 -75.6038
211.669922 102.447 -76.4714
212.036133 102.599 -77.3799
212.402344 102.748 -78.3280
212.768555 102.893 -79.3156
213.134766 103.035 -80.3433
213.500977 103.172 -81.4149
213.867188 103.303 -82.5361
214.233398 103.427 -83.7100
214.599609 103.538 -84.9321
214.965820 103.635 -86.1864
215.332031 103.714 -87.4447
215.698242 103.775 -88.6698
216.064453 103.819 -89.8234
216.430664 103.849 -90.8712
216.796875 103.872 -91.7904
217.163086 103.895 -92.5736
217.529297 103.924 -93.2295
217.895508 103.964 -93.7832
218.261719 104.020 -94.2706
218.627930 104.093 -94.7306
218.994141 104.181 -95.1962
219.360352 104.283 -95.6914
219.726562 104.395 -96.2314
220.092773 104.518 -96.8301
220.458984 104.649 -97.5039
220.825195 104.784 -98.2705
221.191406 104.920 -99.1420
221.557617 105.051 -100.1156
221.923828 105.172 -101.1733
222.290039 105.280 -102.2867
222.656250 105.375 -103.4274
223.022461 105.456 -104.5732
223.388672 105.524 -105.7083
223.754883 105.579 -106.8145
224.121094 105.620 -107.8656
224.487305 105.651 -108.8289
224.853516 105.676 -109.6752
225.219727 105.703 -110.3945
225.585938 105.739 -111.0039
225.952148 105.788 -111.5436
226.318359 105.852 -112.0598
226.684570 105.928 -112.5873
227.050781 106.010 -113.1383
227.416992 106.095 -113.7032
227.783203 106.180 -114.2578
228.149414 106.266 -114.7715
228.515625 106.357 -115.2169
228.881836 106.460 -115.5779
229.248047 106.583 -115.8618
229.614258 106.735 -116.1064
229.980469 106.921 -116.3798
230.346680 107.144 -116.7651
230.712891 107.397 -117.3405
231.079102 107.673 -118.1624
231.445312 107.962 -119.2626
231.811523 108.255 -120.6575
232.177734 108.544 -122.3562
232.543945 108.820 -124.3645
232.910156 109.074 -126.6779
233.276367 109.293 -129.2734
233.642578 109.468 -132.1033
234.008789 109.589 -135.0961
234.375000 109.651 -138.1654
234.741211 109.655 -141.2191
235.107422 109.602 -144.1711
235.473633 109.500 -146.9475
235.839844 109.356 -149.4928
236.206055 109.181 -151.7699
236.572266 108.984 -153.7601
236.938477 108.775 -155.4589
237.304688 108.561 -156.8705
237.670898 108.351 -158.0048
238.037109 108.149 -158.8740
238.403320 107.966 -159.4969
238.769531 107.807 -159.9050
239.135742 107.681 -160.1501
239.501953 107.592 -160.3040
239.868164 107.542 -160.4524
240.234375 107.526 -160.6791
240.600586 107.535 -161.0503
240.966797 107.556 -161.6036
241.333008 107.576 -162.3422
241.699219 107.584 -163.2385
242.065430 107.570 -164.2382
242.431641 107.527 -165.2682
242.797852 107.453 -166.2443
243.164062 107.350 -167.0802
243.530273 107.227 -167.6962
243.896484 107.093 -168.0292
244.262695 106.964 -168.0419
244.628906 106.856 -167.7295
244.995117 106.786 -167.1256
245.361328 106.768 -166.3033
245.727539 106.815 -165.3717
246.093750 106.932 -164.4652
246.459961 107.114 -163.7260
246.826172 107.352 -163.2802
247.192383 107.628 -163.2175
247.558594 107.924 -163.5790
247.924805 108.219 -164.3566
248.291016 108.497 -165.5037
248.657227 108.748 -166.9501
249.023438 108.964 -168.6158
249.389648 109.141 -170.4209
249.755859 109.280 -172.2922
250.122070 109.384 -174.1654
250.488281 109.456 -175.9865
250.854492 109.504 -177.7146
251.220703 109.533 -179.3215
251.586914 109.551 179.2057
251.953125 109.565 177.8682
252.319336 109.579 176.6575
252.685547 109.599 175.5618
253.051758 109.628 174.5681
253.417969 109.670 173.6638
253.784180 109.729 172.8346
254.150391 109.807 172.0602
254.516602 109.910 171.3140
254.882812 110.039 170.5613
255.249023 110.198 169.7632
255.615234 110.386 168.8774
255.981445 110.604 167.8619
256.347656 110.851 166.6731
256.713867 111.123 165.2653
257.080078 111.419 163.5912
257.446289 111.733 161.6025
257.812500 112.057 159.2554
258.178711 112.384 156.5150
258.544922 112.701 153.3602
258.911133 113.000 149.7845
259.277344 113.269 145.7950
259.643555 113.498 141.4093
260.009766 113.677 136.6536
260.375977 113.799 131.5621
260.742188 113.854 126.1764
261.108398 113.834 120.5474
261.474609 113.732 114.7350
261.840820 113.543 108.8083
262.207031 113.262 102.8425
262.573242 112.888 96.9158
262.939453 112.421 91.1040
263.305664 111.864 85.4788
263.671875 111.219 80.1029
264.038086 110.489 75.0316
264.404297 109.679 70.3136
264.770508 108.791 65.9937
265.136719 107.826 62.1176
265.502930 106.786 58.7344
265.869141 105.670 55.9010
266.235352 104.477 53.6869
266.601562 103.203 52.1863
266.967773 101.844 51.5372
267.333984 100.395 51.9526
267.700195 98.858 53.7579
268.066406 97.255 57.4280
268.432617 95.652 63.5817
268.798828 94.200 72.7976
269.165039 93.158 85.0188
269.531250 92.783 98.7455
269.897461 93.103 111.4186
270.263672 93.877 121.2408
270.629883 94.825 127.9567
270.996094 95.766 132.1431
271.362305 96.619 134.5077
271.728516 97.357 135.6265
272.094727 97.982 135.9037
272.460938 98.503 135.5990
272.827148 98.932 134.8699
273.193359 99.272 133.8192
273.559570 99.526 132.5343
273.925781 99.691 131.1135
274.291992 99.769 129.6714
274.658203 99.763 128.3312
275.024414 99.680 127.2111
275.390625 99.533 126.4122
275.756836 99.335 126.0154
276.123047 99.100 126.0834
276.489258 98.845 126.6663
276.855469 98.586 127.8005
277.221680 98.344 129.5051
277.587891 98.138 131.7734
277.954102 97.992 134.5707
278.320312 97.925 137.8312
278.686523 97.963 141.4478
279.052734 98.125 145.2506
279.418945 98.426 148.9952
279.785156 98.861 152.3911
280.151367 99.410 155.1708
280.517578 100.035 157.1620
280.883789 100.696 158.3142
281.250000 101.357 158.6754
281.616211 101.995 158.3491
281.982422 102.592 157.4547
282.348633 103.140 156.1073
282.714844 103.635 154.4094
283.081055 104.075 152.4525
283.447266 104.459 150.3176
283.813477 104.792 148.0765
284.179688 105.077 145.7906
284.545898 105.318 143.5087
284.912109 105.523 141.2666
285.278320 105.698 139.0878
285.644531 105.848 136.9849
286.010742 105.979 134.9606
286.376953 106.095 133.0110
286.743164 106.201 131.1251
287.109375 106.299 129.2882
287.475586 106.390 127.4849
287.841797 106.473 125.7018
288.208008 106.550 123.9329
288.574219 106.617 122.1792
288.940430 106.675 120.4498
289.306641 106.724 118.7573
289.672852 106.766 117.1140
290.039062 106.804 115.5266
290.405273 106.840 113.9941
290.771484 106.880 112.5062
291.137695 106.924 111.0450
291.503906 106.973 109.5896
291.870117 107.029 108.1187
292.236328 107.091 106.6158
292.602539 107.156 105.0692
292.968750 107.225 103.4707
293.334961 107.298 101.8091
293.701172 107.375 100.0658
294.067383 107.456 98.2114
294.433594 107.538 96.2097
294.799805 107.615 94.0273
295.166016 107.679 91.6437
295.532227 107.720 89.0594
295.898438 107.730 86.2957
296.264648 107.702 83.3888
296.630859 107.629 80.3815
296.997070 107.507 77.3174
297.363281 107.333 74.2385
297.729492 107.102 71.1898
298.095703 106.810 68.2247
298.461914 106.452 65.4111
298.828125 106.024 62.8375
299.194336 105.523 60.6144
299.560547 104.951 58.8771
299.926758 104.313 57.7869
