* Measurement data measured by REW V5.20.8
* Source: ASIO hdspfire, Analog 1 (1)
* Format: 4M Log Swept Sine, 1 sweep at -12.0 dBFS with no timing reference
* Dated: 13 juin 2022 13:44:52
* REW Settings:
*  C-weighting compensation: Off
*  Target level: 75.0 dB
* Note: ; 
* Measurement: off_0x1400_4_0 juin 13
* Smoothing: None
* Frequency Step: 0.36621094 Hz
* Start Frequency: 0.36621094 Hz
*
* Freq(Hz) SPL(dB) Phase(degrees)
0.366211 10.429 146.5710
0.732422 2.328 59.7582
1.098633 11.119 -33.5310
1.464844 15.647 -59.7715
1.831055 17.151 -74.5732
2.197266 17.627 -84.3165
2.563477 17.927 -98.7667
2.929688 17.886 -130.2192
3.295898 19.243 176.4736
3.662109 23.461 126.6116
4.028320 27.443 92.1616
4.394531 30.129 66.7171
4.760742 31.774 47.8337
5.126953 33.045 35.5182
5.493164 34.805 27.1898
5.859375 37.262 16.7606
6.225586 39.797 1.4342
6.591797 41.870 -17.0334
6.958008 43.261 -35.6483
7.324219 43.948 -51.1826
7.690430 44.228 -59.8732
8.056641 45.084 -60.2832
8.422852 47.331 -60.0472
8.789062 50.088 -66.6147
9.155273 52.333 -78.4072
9.521484 53.717 -91.4575
9.887695 54.230 -101.8579
10.253906 54.247 -105.1459
10.620117 54.998 -99.7507
10.986328 57.374 -95.3922
11.352539 60.202 -99.8232
11.718750 62.425 -110.3497
12.084961 63.749 -122.9296
12.451172 64.121 -134.2023
12.817383 63.640 -139.9927
13.183594 63.101 -134.7177
13.549805 64.481 -121.9749
13.916016 67.568 -118.2012
14.282227 70.478 -124.8942
14.648438 72.607 -136.7888
15.014648 73.919 -150.6424
15.380859 74.443 -164.5386
15.747070 74.185 -176.7253
16.113281 73.175 175.4099
16.479492 71.789 176.2562
16.845703 71.477 -172.4593
17.211914 73.268 -163.2966
17.578125 75.602 -164.8800
17.944336 77.351 -173.4073
18.310547 78.283 175.1868
18.676758 78.366 163.4583
19.042969 77.559 153.7048
19.409180 75.838 149.4831
19.775391 73.657 157.5933
20.141602 73.331 -179.6406
20.507812 75.827 -162.9764
20.874023 78.647 -158.4994
21.240234 81.000 -159.2261
21.606445 83.023 -161.7654
21.972656 84.879 -165.4144
22.338867 86.599 -170.2449
22.705078 88.136 -176.1098
23.071289 89.453 177.5361
23.437500 90.576 171.3967
23.803711 91.582 166.0051
24.169922 92.604 161.4107
24.536133 93.747 157.0535
24.902344 95.026 152.0596
25.268555 96.367 145.7825
25.634766 97.666 138.0633
26.000977 98.840 129.1090
26.367188 99.842 119.2723
26.733398 100.650 108.9219
27.099609 101.259 98.4104
27.465820 101.673 88.0878
27.832031 101.914 78.3166
28.198242 102.024 69.4521
28.564453 102.079 61.7481
28.930664 102.177 55.1794
29.296875 102.412 49.2873
29.663086 102.813 43.2777
30.029297 103.326 36.4225
30.395508 103.845 28.4172
30.761719 104.271 19.4107
31.127930 104.542 9.8246
31.494141 104.636 0.1716
31.860352 104.571 -9.0654
32.226562 104.392 -17.5232
32.592773 104.157 -25.0405
32.958984 103.926 -31.7039
33.325195 103.735 -37.7871
33.691406 103.579 -43.5728
34.057617 103.427 -49.1711
34.423828 103.253 -54.4678
34.790039 103.057 -59.2272
35.156250 102.874 -63.2808
35.522461 102.752 -66.6929
35.888672 102.720 -69.7744
36.254883 102.761 -72.8815
36.621094 102.826 -76.1525
36.987305 102.870 -79.4128
37.353516 102.891 -82.3134
37.719727 102.940 -84.6121
38.085938 103.090 -86.4486
38.452148 103.382 -88.3803
38.818359 103.777 -91.0477
39.184570 104.179 -94.7485
39.550781 104.489 -99.3054
39.916992 104.646 -104.2186
40.283203 104.644 -108.8800
40.649414 104.523 -112.7570
41.015625 104.368 -115.5605
41.381836 104.271 -117.3779
41.748047 104.296 -118.6545
42.114258 104.448 -119.9564
42.480469 104.682 -121.6783
42.846680 104.941 -123.9310
43.212891 105.183 -126.6196
43.579102 105.378 -129.5632
43.945312 105.516 -132.5669
44.311523 105.596 -135.4475
44.677734 105.634 -138.0486
45.043945 105.651 -140.2639
45.410156 105.673 -142.0664
45.776367 105.724 -143.5144
46.142578 105.819 -144.7258
46.508789 105.963 -145.8333
46.875000 106.150 -146.9475
47.241211 106.372 -148.1436
47.607422 106.614 -149.4526
47.973633 106.865 -150.8505
48.339844 107.120 -152.2573
48.706055 107.386 -153.5769
49.072266 107.686 -154.7784
49.438477 108.047 -155.9756
49.804688 108.481 -157.4285
50.170898 108.971 -159.4331
50.537109 109.472 -162.1692
50.903320 109.933 -165.6238
51.269531 110.315 -169.6243
51.635742 110.600 -173.9237
52.001953 110.786 -178.2856
52.368164 110.887 177.4659
52.734375 110.920 173.4326
53.100586 110.901 169.6582
53.466797 110.842 166.1586
53.833008 110.754 162.9424
54.199219 110.646 160.0115
54.565430 110.530 157.3507
54.931641 110.412 154.9250
55.297852 110.295 152.6981
55.664062 110.179 150.6587
56.030273 110.067 148.8285
56.396484 109.968 147.2345
56.762695 109.896 145.8594
57.128906 109.866 144.6111
57.495117 109.882 143.3457
57.861328 109.931 141.9354
58.227539 109.997 140.3290
58.593750 110.061 138.5604
58.959961 110.114 136.7072
59.326172 110.158 134.8361
59.692383 110.194 132.9752
60.058594 110.229 131.1228
60.424805 110.261 129.2765
60.791016 110.290 127.4526
61.157227 110.319 125.6777
61.523438 110.351 123.9648
61.889648 110.391 122.2971
62.255859 110.440 120.6388
62.622070 110.497 118.9624
62.988281 110.559 117.2675
63.354492 110.627 115.5708
63.720703 110.707 113.8750
64.086914 110.804 112.1450
64.453125 110.917 110.3143
64.819336 111.040 108.3235
65.185547 111.161 106.1572
65.551758 111.272 103.8530
65.917969 111.367 101.4746
66.284180 111.453 99.0664
66.650391 111.536 96.6249
67.016602 111.619 94.1028
67.382812 111.699 91.4446
67.749023 111.765 88.6274
68.115234 111.805 85.6812
68.481445 111.812 82.6726
68.847656 111.789 79.6747
69.213867 111.740 76.7349
69.580078 111.672 73.8621
69.946289 111.589 71.0405
70.312500 111.489 68.2543
70.678711 111.370 65.5093
71.044922 111.230 62.8374
71.411133 111.069 60.2799
71.777344 110.894 57.8655
72.143555 110.711 55.5969
72.509766 110.525 53.4547
72.875977 110.337 51.4147
73.242188 110.145 49.4670
73.608398 109.948 47.6217
73.974609 109.747 45.8982
74.340820 109.546 44.3087
74.707031 109.350 42.8499
75.073242 109.162 41.5059
75.439453 108.982 40.2633
75.805664 108.811 39.1201
76.171875 108.650 38.0795
76.538086 108.503 37.1343
76.904297 108.373 36.2549
77.270508 108.263 35.3945
77.636719 108.170 34.5125
78.002930 108.088 33.5956
78.369141 108.013 32.6606
78.735352 107.946 31.7341
79.101562 107.890 30.8229
79.467773 107.850 29.8989
79.833984 107.826 28.9104
80.200195 107.812 27.8120
80.566406 107.797 26.5922
80.932617 107.776 25.2775
81.298828 107.745 23.9146
81.665039 107.705 22.5435
82.031250 107.662 21.1805
82.397461 107.617 19.8190
82.763672 107.571 18.4449
83.129883 107.523 17.0527
83.496094 107.471 15.6501
83.862305 107.415 14.2517
84.228516 107.354 12.8661
84.594727 107.293 11.4912
84.960938 107.231 10.1188
85.327148 107.169 8.7432
85.693359 107.104 7.3685
86.059570 107.037 6.0050
86.425781 106.970 4.6600
86.791992 106.905 3.3295
87.158203 106.843 1.9974
87.524414 106.784 0.6461
87.890625 106.725 -0.7343
88.256836 106.664 -2.1393
88.623047 106.600 -3.5562
88.989258 106.533 -4.9717
89.355469 106.464 -6.3813
89.721680 106.395 -7.7880
90.087891 106.326 -9.1964
90.454102 106.256 -10.6082
90.820312 106.187 -12.0210
91.186523 106.117 -13.4340
91.552734 106.049 -14.8508
91.918945 105.982 -16.2794
92.285156 105.914 -17.7247
92.651367 105.847 -19.1853
93.017578 105.780 -20.6567
93.383789 105.716 -22.1420
93.750000 105.658 -23.6609
94.116211 105.604 -25.2483
94.482422 105.554 -26.9399
94.848633 105.497 -28.7526
95.214844 105.425 -30.6730
95.581055 105.334 -32.6604
95.947266 105.220 -34.6626
96.313477 105.087 -36.6337
96.679688 104.937 -38.5457
97.045898 104.778 -40.3884
97.412109 104.612 -42.1633
97.778320 104.444 -43.8746
98.144531 104.276 -45.5294
98.510742 104.112 -47.1417
98.876953 103.955 -48.7379
99.243164 103.806 -50.3572
99.609375 103.662 -52.0422
99.975586 103.519 -53.8274
100.341797 103.368 -55.7274
100.708008 103.202 -57.7327
101.074219 103.016 -59.8107
101.440430 102.804 -61.9142
101.806641 102.565 -63.9904
102.172852 102.302 -65.9919
102.539062 102.021 -67.8873
102.905273 101.727 -69.6641
103.271484 101.424 -71.3271
103.637695 101.116 -72.8877
104.003906 100.803 -74.3514
104.370117 100.488 -75.7156
104.736328 100.174 -76.9744
105.102539 99.867 -78.1337
105.468750 99.571 -79.2219
105.834961 99.290 -80.2883
106.201172 99.021 -81.3872
106.567383 98.761 -82.5581
106.933594 98.501 -83.8140
107.299805 98.235 -85.1460
107.666016 97.962 -86.5359
108.032227 97.681 -87.9689
108.398438 97.391 -89.4388
108.764648 97.092 -90.9453
109.130859 96.782 -92.4889
109.497070 96.459 -94.0679
109.863281 96.123 -95.6777
110.229492 95.772 -97.3082
110.595703 95.404 -98.9410
110.961914 95.022 -100.5546
111.328125 94.634 -102.1405
111.694336 94.248 -103.7325
112.060547 93.872 -105.4232
112.426758 93.504 -107.3495
112.792969 93.127 -109.6379
113.159180 92.716 -112.3427
113.525391 92.246 -115.4170
113.891602 91.699 -118.7369
114.257812 91.078 -122.1675
114.624023 90.397 -125.6383
114.990234 89.675 -129.1915
115.356445 88.925 -132.9678
115.722656 88.147 -137.1366
116.088867 87.336 -141.8214
116.455078 86.497 -147.0890
116.821289 85.660 -153.0189
117.187500 84.882 -159.7992
117.553711 84.233 -167.7477
117.919922 83.778 -177.1654
118.286133 83.564 171.9330
118.652344 83.611 160.0104
119.018555 83.913 147.9211
119.384766 84.434 136.5699
119.750977 85.133 126.5503
120.117188 85.974 117.9817
120.483398 86.924 110.5829
120.849609 87.938 103.9023
121.215820 88.958 97.5660
121.582031 89.928 91.4062
121.948242 90.809 85.4420
122.314453 91.592 79.7800
122.680664 92.285 74.5123
123.046875 92.911 69.6501
123.413086 93.490 65.1163
123.779297 94.031 60.7875
124.145508 94.531 56.5590
124.511719 94.980 52.3907
124.877930 95.372 48.3103
125.244141 95.705 44.3820
125.610352 95.985 40.6652
125.976562 96.225 37.1869
126.342773 96.433 33.9373
126.708984 96.618 30.8861
127.075195 96.781 28.0049
127.441406 96.926 25.2792
127.807617 97.054 22.7041
128.173828 97.170 20.2700
128.540039 97.277 17.9523
128.906250 97.375 15.7155
129.272461 97.463 13.5316
129.638672 97.534 11.3988
130.004883 97.584 9.3485
130.371094 97.615 7.4335
130.737305 97.634 5.6995
131.103516 97.651 4.1569
131.469727 97.677 2.7672
131.835938 97.718 1.4551
132.202148 97.772 0.1416
132.568359 97.829 -1.2207
132.934570 97.879 -2.6316
133.300781 97.915 -4.0515
133.666992 97.936 -5.4263
134.033203 97.945 -6.7119
134.399414 97.946 -7.8850
134.765625 97.946 -8.9398
135.131836 97.948 -9.8767
135.498047 97.957 -10.6970
135.864258 97.979 -11.4099
136.230469 98.021 -12.0455
136.596680 98.088 -12.6613
136.962891 98.178 -13.3307
137.329102 98.286 -14.1173
137.695312 98.403 -15.0504
138.061523 98.518 -16.1215
138.427734 98.625 -17.2976
138.793945 98.724 -18.5469
139.160156 98.815 -19.8538
139.526367 98.899 -21.2174
139.892578 98.972 -22.6376
140.258789 99.031 -24.0979
140.625000 99.074 -25.5648
140.991211 99.103 -27.0004
141.357422 99.123 -28.3824
141.723633 99.140 -29.7164
142.089844 99.156 -31.0289
142.456055 99.171 -32.3480
142.822266 99.180 -33.6836
143.188477 99.181 -35.0239
143.554688 99.175 -36.3470
143.920898 99.163 -37.6393
144.287109 99.148 -38.9054
144.653320 99.133 -40.1621
145.019531 99.115 -41.4248
145.385742 99.094 -42.6981
145.751953 99.066 -43.9771
146.118164 99.035 -45.2584
146.484375 98.997 -46.5472
146.850586 98.952 -47.8507
147.216797 98.896 -49.1653
147.583008 98.823 -50.4647
147.949219 98.734 -51.7048
148.315430 98.632 -52.8406
148.681641 98.523 -53.8472
149.047852 98.413 -54.7288
149.414062 98.307 -55.5083
149.780273 98.205 -56.2046
150.146484 98.106 -56.8173
150.512695 98.011 -57.3296
150.878906 97.925 -57.7275
151.245117 97.856 -58.0210
151.611328 97.808 -58.2466
151.977539 97.783 -58.4532
152.343750 97.778 -58.6782
152.709961 97.790 -58.9352
153.076172 97.819 -59.2219
153.442383 97.865 -59.5406
153.808594 97.933 -59.9133
154.174805 98.022 -60.3828
154.541016 98.130 -60.9979
154.907227 98.252 -61.7953
155.273438 98.381 -62.7910
155.639648 98.510 -63.9847
156.005859 98.634 -65.3710
156.372070 98.751 -66.9460
156.738281 98.854 -68.7067
157.104492 98.938 -70.6416
157.470703 98.997 -72.7231
157.836914 99.028 -74.9073
158.203125 99.030 -77.1433
158.569336 99.006 -79.3888
158.935547 98.961 -81.6229
159.301758 98.900 -83.8497
159.667969 98.825 -86.0903
160.034180 98.735 -88.3660
160.400391 98.625 -90.6838
160.766602 98.490 -93.0309
161.132812 98.329 -95.3782
161.499023 98.139 -97.6902
161.865234 97.922 -99.9321
162.231445 97.679 -102.0726
162.597656 97.413 -104.0820
162.963867 97.128 -105.9323
163.330078 96.831 -107.6030
163.696289 96.528 -109.0906
164.062500 96.225 -110.4132
164.428711 95.927 -111.6060
164.794922 95.632 -112.7015
165.161133 95.335 -113.7072
165.527344 95.034 -114.5938
165.893555 94.728 -115.3049
166.259766 94.427 -115.7849
166.625977 94.144 -116.0109
166.992188 93.894 -116.0112
167.358398 93.689 -115.8562
167.724609 93.533 -115.6273
168.090820 93.427 -115.3889
168.457031 93.375 -115.1862
168.823242 93.382 -115.0713
169.189453 93.455 -115.1376
169.555664 93.596 -115.5277
169.921875 93.798 -116.4043
170.288086 94.041 -117.8983
170.654297 94.300 -120.0708
171.020508 94.551 -122.9082
171.386719 94.776 -126.3475
171.752930 94.964 -130.3103
172.119141 95.112 -134.7280
172.485352 95.219 -139.5530
172.851562 95.283 -144.7538
173.217773 95.303 -150.3025
173.583984 95.275 -156.1616
173.950195 95.198 -162.2767
174.316406 95.072 -168.5770
174.682617 94.901 -174.9827
175.048828 94.693 178.5859
175.415039 94.461 172.1992
175.781250 94.217 165.9121
176.147461 93.978 159.7638
176.513672 93.755 153.7789
176.879883 93.563 147.9731
177.246094 93.412 142.3580
177.612305 93.310 136.9434
177.978516 93.265 131.7379
178.344727 93.283 126.7451
178.710938 93.368 121.9583
179.077148 93.524 117.3562
179.443359 93.750 112.9033
179.809570 94.043 108.5542
180.175781 94.397 104.2635
180.541992 94.804 99.9937
180.908203 95.253 95.7185
181.274414 95.738 91.4193
181.640625 96.251 87.0778
182.006836 96.786 82.6703
182.373047 97.336 78.1676
182.739258 97.895 73.5392
183.105469 98.454 68.7607
183.471680 99.004 63.8176
183.837891 99.539 58.7047
184.204102 100.050 53.4237
184.570312 100.531 47.9785
184.936523 100.976 42.3751
185.302734 101.378 36.6241
185.668945 101.731 30.7441
186.035156 102.028 24.7654
186.401367 102.264 18.7307
186.767578 102.435 12.6927
187.133789 102.540 6.7094
187.500000 102.580 0.8375
187.866211 102.558 -4.8721
188.232422 102.479 -10.3788
188.598633 102.348 -15.6534
188.964844 102.172 -20.6776
189.331055 101.954 -25.4402
189.697266 101.700 -29.9341
190.063477 101.412 -34.1531
190.429688 101.095 -38.0892
190.795898 100.752 -41.7345
191.162109 100.387 -45.0819
191.528320 100.005 -48.1284
191.894531 99.612 -50.8760
192.260742 99.211 -53.3322
192.626953 98.808 -55.5107
192.993164 98.406 -57.4318
193.359375 98.010 -59.1230
193.725586 97.624 -60.6221
194.091797 97.247 -61.9736
194.458008 96.878 -63.2234
194.824219 96.512 -64.4089
195.190430 96.141 -65.5524
195.556641 95.760 -66.6575
195.922852 95.358 -67.7122
196.289062 94.930 -68.6899
196.655273 94.466 -69.5486
197.021484 93.960 -70.2231
197.387695 93.406 -70.6184
197.753906 92.800 -70.6064
198.120117 92.149 -70.0376
198.486328 91.465 -68.7556
198.852539 90.769 -66.6174
199.218750 90.093 -63.5057
199.584961 89.476 -59.3439
199.951172 88.969 -54.1316
200.317383 88.633 -48.0198
200.683594 88.524 -41.3822
201.049805 88.661 -34.7812
201.416016 89.021 -28.7850
201.782227 89.541 -23.7640
202.148438 90.154 -19.8304
202.514648 90.807 -16.9131
202.880859 91.464 -14.8640
203.247070 92.105 -13.5269
203.613281 92.722 -12.7648
203.979492 93.310 -12.4677
204.345703 93.871 -12.5549
204.711914 94.407 -12.9747
205.078125 94.919 -13.7008
205.444336 95.409 -14.7231
205.810547 95.875 -16.0385
206.176758 96.316 -17.6444
206.542969 96.727 -19.5399
206.909180 97.106 -21.7275
207.275391 97.447 -24.2129
207.641602 97.742 -26.9987
208.007812 97.983 -30.0739
208.374023 98.155 -33.4056
208.740234 98.249 -36.9340
209.106445 98.254 -40.5740
209.472656 98.162 -44.2216
209.838867 97.969 -47.7592
210.205078 97.674 -51.0605
210.571289 97.278 -53.9907
210.937500 96.786 -56.4048
211.303711 96.207 -58.1433
211.669922 95.554 -59.0294
212.036133 94.851 -58.8712
212.402344 94.133 -57.4790
212.768555 93.455 -54.7094
213.134766 92.891 -50.5504
213.500977 92.522 -45.2280
213.867188 92.414 -39.2584
214.233398 92.587 -33.3492
214.599609 93.005 -28.1660
214.965820 93.596 -24.1337
215.332031 94.280 -21.3961
215.698242 94.990 -19.8912
216.064453 95.679 -19.4481
216.430664 96.315 -19.8569
216.796875 96.883 -20.9108
217.163086 97.379 -22.4294
217.529297 97.802 -24.2700
217.895508 98.158 -26.3279
218.261719 98.451 -28.5311
218.627930 98.687 -30.8290
218.994141 98.867 -33.1836
219.360352 98.995 -35.5632
219.726562 99.071 -37.9413
220.092773 99.096 -40.2935
220.458984 99.067 -42.5913
220.825195 98.979 -44.7905
221.191406 98.830 -46.8188
221.557617 98.617 -48.5691
221.923828 98.345 -49.9047
222.290039 98.025 -50.6769
222.656250 97.681 -50.7520
223.022461 97.345 -50.0430
223.388672 97.058 -48.5400
223.754883 96.862 -46.3337
224.121094 96.797 -43.6307
224.487305 96.889 -40.7484
224.853516 97.143 -38.0737
225.219727 97.540 -35.9846
225.585938 98.039 -34.7637
225.952148 98.590 -34.5533
226.318359 99.142 -35.3643
226.684570 99.656 -37.1154
227.050781 100.099 -39.6766
227.416992 100.448 -42.8967
227.783203 100.686 -46.6173
228.149414 100.803 -50.6785
228.515625 100.790 -54.9215
228.881836 100.646 -59.1915
229.248047 100.369 -63.3403
229.614258 99.962 -67.2289
229.980469 99.429 -70.7271
230.346680 98.772 -73.7085
230.712891 97.996 -76.0396
231.079102 97.101 -77.5579
231.445312 96.090 -78.0474
231.811523 94.972 -77.2114
232.177734 93.776 -74.6555
232.543945 92.562 -69.9238
232.910156 91.446 -62.6493
233.276367 90.601 -52.8879
233.642578 90.192 -41.4624
234.008789 90.283 -29.7963
234.375000 90.793 -19.1547
234.741211 91.585 -10.1317
235.107422 92.540 -2.7808
235.473633 93.577 3.0656
235.839844 94.650 7.6213
236.206055 95.728 11.0955
236.572266 96.796 13.6746
236.938477 97.847 15.5087
237.304688 98.882 16.6997
237.670898 99.901 17.3041
238.037109 100.903 17.3475
238.403320 101.885 16.8439
238.769531 102.841 15.8103
239.135742 103.765 14.2721
239.501953 104.650 12.2604
239.868164 105.493 9.8087
240.234375 106.288 6.9508
240.600586 107.029 3.7222
240.966797 107.713 0.1637
241.333008 108.335 -3.6771
241.699219 108.890 -7.7452
242.065430 109.377 -11.9810
242.431641 109.796 -16.3232
242.797852 110.147 -20.7139
243.164062 110.433 -25.0985
243.530273 110.658 -29.4290
243.896484 110.825 -33.6620
244.262695 110.940 -37.7594
244.628906 111.009 -41.6887
244.995117 111.037 -45.4235
245.361328 111.031 -48.9467
245.727539 110.998 -52.2510
246.093750 110.944 -55.3390
246.459961 110.875 -58.2211
246.826172 110.795 -60.9120
247.192383 110.707 -63.4274
247.558594 110.613 -65.7814
247.924805 110.515 -67.9854
248.291016 110.414 -70.0488
248.657227 110.313 -71.9800
249.023438 110.213 -73.7866
249.389648 110.115 -75.4792
249.755859 110.021 -77.0698
250.122070 109.933 -78.5745
250.488281 109.850 -80.0107
250.854492 109.774 -81.3977
251.220703 109.703 -82.7524
251.586914 109.636 -84.0889
251.953125 109.570 -85.4165
252.319336 109.505 -86.7402
252.685547 109.438 -88.0625
253.051758 109.367 -89.3843
253.417969 109.292 -90.7056
253.784180 109.210 -92.0247
254.150391 109.118 -93.3384
254.516602 109.016 -94.6409
254.882812 108.902 -95.9231
255.249023 108.773 -97.1733
255.615234 108.627 -98.3782
255.981445 108.463 -99.5205
256.347656 108.276 -100.5776
256.713867 108.065 -101.5156
257.080078 107.826 -102.2856
257.446289 107.557 -102.8193
257.812500 107.259 -103.0239
258.178711 106.936 -102.7842
258.544922 106.603 -101.9663
258.911133 106.282 -100.4377
259.277344 106.012 -98.1055
259.643555 105.846 -94.9858
260.009766 105.840 -91.2812
260.375977 106.037 -87.4072
260.742188 106.442 -83.9067
261.108398 107.018 -81.2712
261.474609 107.700 -79.7964
261.840820 108.423 -79.5525
262.207031 109.129 -80.4468
262.573242 109.780 -82.3047
262.939453 110.351 -84.9272
263.305664 110.828 -88.1199
263.671875 111.203 -91.7075
264.038086 111.478 -95.5349
264.404297 111.653 -99.4668
264.770508 111.735 -103.3875
265.136719 111.731 -107.1982
265.502930 111.648 -110.8167
265.869141 111.497 -114.1768
266.235352 111.285 -117.2241
266.601562 111.023 -119.9141
266.967773 110.720 -122.2080
267.333984 110.385 -124.0701
267.700195 110.030 -125.4683
268.066406 109.666 -126.3755
268.432617 109.307 -126.7744
268.798828 108.969 -126.6653
269.165039 108.670 -126.0713
269.531250 108.426 -125.0474
269.897461 108.254 -123.6863
270.263672 108.168 -122.1199
270.629883 108.172 -120.5117
270.996094 108.265 -119.0352
271.362305 108.433 -117.8428
271.728516 108.659 -117.0422
272.094727 108.920 -116.6865
272.460938 109.197 -116.7803
272.827148 109.473 -117.2961
273.193359 109.735 -118.1895
273.559570 109.974 -119.4062
273.925781 110.180 -120.8875
274.291992 110.348 -122.5671
274.658203 110.475 -124.3728
275.024414 110.560 -126.2300
275.390625 110.607 -128.0688
275.756836 110.622 -129.8345
276.123047 110.612 -131.4932
276.489258 110.588 -133.0371
276.855469 110.555 -134.4819
277.221680 110.519 -135.8579
277.587891 110.479 -137.1978
277.954102 110.434 -138.5269
278.320312 110.380 -139.8552
278.686523 110.313 -141.1768
279.052734 110.231 -142.4700
279.418945 110.132 -143.7065
279.785156 110.017 -144.8555
280.151367 109.889 -145.8896
280.517578 109.751 -146.7891
280.883789 109.608 -147.5435
281.250000 109.464 -148.1521
281.616211 109.323 -148.6221
281.982422 109.189 -148.9678
282.348633 109.063 -149.2090
282.714844 108.947 -149.3643
283.081055 108.840 -149.4497
283.447266 108.742 -149.4741
283.813477 108.649 -149.4387
284.179688 108.563 -149.3374
284.545898 108.484 -149.1604
284.912109 108.412 -148.8965
285.278320 108.351 -148.5371
285.644531 108.304 -148.0806
286.010742 108.277 -147.5349
286.376953 108.273 -146.9219
286.743164 108.296 -146.2778
287.109375 108.349 -145.6504
287.475586 108.427 -145.0898
287.841797 108.528 -144.6377
288.208008 108.643 -144.3159
288.574219 108.764 -144.1226
288.940430 108.886 -144.0342
289.306641 109.006 -144.0154
289.672852 109.123 -144.0295
290.039062 109.239 -144.0488
290.405273 109.358 -144.0579
290.771484 109.483 -144.0525
291.137695 109.618 -144.0371
291.503906 109.764 -144.0195
291.870117 109.924 -144.0103
292.236328 110.101 -144.0239
292.602539 110.296 -144.0791
292.968750 110.509 -144.2017
293.334961 110.743 -144.4221
293.701172 110.994 -144.7725
294.067383 111.262 -145.2837
294.433594 111.541 -145.9824
294.799805 111.826 -146.8867
295.166016 112.113 -148.0059
295.532227 112.395 -149.3398
295.898438 112.667 -150.8789
296.264648 112.925 -152.6064
296.630859 113.166 -154.5015
296.997070 113.386 -156.5417
297.363281 113.585 -158.7056
297.729492 113.762 -160.9736
298.095703 113.917 -163.3311
298.461914 114.050 -165.7676
298.828125 114.160 -168.2773
299.194336 114.247 -170.8579
299.560547 114.308 -173.5068
299.926758 114.342 -176.2185
