* Measurement data measured by REW V5.20.8
* Source: ASIO hdspfire, Analog 1 (1)
* Format: 4M Log Swept Sine, 1 sweep at -12.0 dBFS with no timing reference
* Dated: 13 juin 2022 14:04:29
* REW Settings:
*  C-weighting compensation: Off
*  Target level: 75.0 dB
* Note: ; 
* Measurement: off_0x1400_4_2 juin 13
* Smoothing: None
* Frequency Step: 0.36621094 Hz
* Start Frequency: 0.36621094 Hz
*
* Freq(Hz) SPL(dB) Phase(degrees)
0.366211 17.060 16.2549
0.732422 16.848 27.8388
1.098633 15.312 44.2519
1.464844 14.472 76.2424
1.831055 16.074 104.8483
2.197266 17.619 127.9798
2.563477 20.417 152.7395
2.929688 24.435 162.3378
3.295898 27.261 157.4416
3.662109 28.115 145.8896
4.028320 26.490 133.2604
4.394531 20.935 131.8615
4.760742 17.698 -161.4098
5.126953 23.133 -155.8113
5.493164 22.033 161.4117
5.859375 26.492 57.0531
6.225586 35.596 12.4723
6.591797 41.134 -13.8466
6.958008 44.618 -35.1331
7.324219 46.744 -52.7326
7.690430 47.948 -65.8268
8.056641 48.757 -73.2996
8.422852 49.856 -76.2802
8.789062 51.527 -79.3309
9.155273 53.324 -85.5640
9.521484 54.748 -93.9198
9.887695 55.643 -101.4469
10.253906 56.251 -105.0633
10.620117 57.240 -103.9427
10.986328 59.129 -102.5587
11.352539 61.477 -105.8693
11.718750 63.585 -113.7701
12.084961 65.118 -123.8222
12.451172 66.003 -133.5110
12.817383 66.333 -140.3085
13.183594 66.485 -141.7750
13.549805 67.223 -138.0721
13.916016 69.007 -134.8619
14.282227 71.280 -137.1134
14.648438 73.358 -144.4522
15.014648 74.955 -154.7396
15.380859 76.002 -166.1767
15.747070 76.507 -177.3270
16.113281 76.519 173.2395
16.479492 76.188 167.1597
16.845703 75.890 165.7190
17.211914 76.195 167.6480
17.578125 77.280 168.3587
17.944336 78.665 164.7054
18.310547 79.836 157.1627
18.676758 80.546 147.5186
19.042969 80.720 137.5254
19.409180 80.371 128.8245
19.775391 79.608 123.0971
20.141602 78.706 121.7695
20.507812 78.107 124.6694
20.874023 78.079 129.0920
21.240234 78.414 132.5247
21.606445 78.800 135.2143
21.972656 79.217 138.6637
22.338867 79.890 143.1928
22.705078 80.955 147.2426
23.071289 82.250 149.3010
23.437500 83.538 149.5156
23.803711 84.721 149.0203
24.169922 85.887 148.7010
24.536133 87.192 148.4812
24.902344 88.706 147.4189
25.268555 90.360 144.5546
25.634766 92.013 139.5696
26.000977 93.550 132.7066
26.367188 94.901 124.4191
26.733398 96.034 115.1655
27.099609 96.934 105.3693
27.465820 97.597 95.4506
27.832031 98.033 85.8651
28.198242 98.273 77.1096
28.564453 98.391 69.6493
28.930664 98.505 63.7149
29.296875 98.754 59.0073
29.663086 99.227 54.6148
30.029297 99.894 49.4654
30.395508 100.633 42.9604
30.761719 101.315 35.1469
31.127930 101.855 26.4716
31.494141 102.221 17.5011
31.860352 102.427 8.7576
32.226562 102.516 0.6279
32.592773 102.542 -6.6995
32.958984 102.560 -13.2651
33.325195 102.612 -19.2885
33.691406 102.701 -25.0283
34.057617 102.806 -30.6285
34.423828 102.903 -36.0539
34.790039 102.986 -41.1476
35.156250 103.071 -45.7643
35.522461 103.196 -49.9052
35.888672 103.386 -53.7645
36.254883 103.640 -57.6309
36.621094 103.925 -61.6976
36.987305 104.199 -65.9340
37.353516 104.440 -70.1150
37.719727 104.662 -73.9793
38.085938 104.913 -77.4342
38.452148 105.241 -80.6864
38.818359 105.657 -84.1685
39.184570 106.121 -88.2711
39.550781 106.563 -93.1053
39.916992 106.919 -98.4688
40.283203 107.161 -103.9730
40.649414 107.296 -109.2086
41.015625 107.367 -113.8881
41.381836 107.428 -117.9398
41.748047 107.527 -121.5131
42.114258 107.684 -124.8730
42.480469 107.892 -128.2523
42.846680 108.134 -131.7727
43.212891 108.399 -135.4713
43.579102 108.673 -139.3665
43.945312 108.947 -143.4857
44.311523 109.203 -147.8402
44.677734 109.430 -152.3856
45.043945 109.618 -157.0161
45.410156 109.770 -161.6082
45.776367 109.902 -166.0856
46.142578 110.031 -170.4645
46.508789 110.169 -174.8451
46.875000 110.313 -179.3502
47.241211 110.451 175.9446
47.607422 110.567 171.0391
47.973633 110.650 165.9828
48.339844 110.701 160.8237
48.706055 110.722 155.5700
49.072266 110.713 150.1877
49.438477 110.667 144.6310
49.804688 110.570 138.8820
50.170898 110.409 132.9747
50.537109 110.170 126.9893
50.903320 109.849 121.0285
51.269531 109.449 115.1865
51.635742 108.976 109.5234
52.001953 108.440 104.0522
52.368164 107.845 98.7401
52.734375 107.188 93.5267
53.100586 106.455 88.3585
53.466797 105.623 83.2307
53.833008 104.661 78.2290
54.199219 103.538 73.5560
54.565430 102.235 69.5330
54.931641 100.750 66.5646
55.297852 99.109 65.0542
55.664062 97.350 65.2903
56.030273 95.501 67.4337
56.396484 93.541 71.8353
56.762695 91.448 79.7686
57.128906 89.460 93.8570
57.495117 88.479 114.8580
57.861328 89.207 135.1677
58.227539 90.780 147.9886
58.593750 92.308 154.8904
58.959961 93.587 158.9147
59.326172 94.691 161.6741
59.692383 95.718 163.5930
60.058594 96.703 164.5872
60.424805 97.621 164.6215
60.791016 98.441 163.9023
61.157227 99.157 162.7582
61.523438 99.791 161.4438
61.889648 100.376 160.0292
62.255859 100.927 158.4332
62.622070 101.441 156.5562
62.988281 101.898 154.4034
63.354492 102.282 152.1108
63.720703 102.597 149.8774
64.086914 102.861 147.8658
64.453125 103.102 146.1313
64.819336 103.346 144.6161
65.185547 103.605 143.2088
65.551758 103.881 141.8170
65.917969 104.169 140.3982
66.284180 104.469 138.9355
66.650391 104.785 137.3928
67.016602 105.118 135.7002
67.382812 105.460 133.7810
67.749023 105.798 131.5972
68.115234 106.117 129.1720
68.481445 106.408 126.5770
68.847656 106.669 123.8936
69.213867 106.907 121.1771
69.580078 107.127 118.4416
69.946289 107.334 115.6707
70.312500 107.529 112.8420
70.678711 107.707 109.9489
71.044922 107.865 107.0051
71.411133 108.004 104.0356
71.777344 108.124 101.0604
72.143555 108.227 98.0858
72.509766 108.316 95.1057
72.875977 108.389 92.1111
73.242188 108.443 89.1024
73.608398 108.477 86.0948
73.974609 108.489 83.1155
74.340820 108.482 80.1940
74.707031 108.459 77.3499
75.073242 108.427 74.5836
75.439453 108.388 71.8770
75.805664 108.342 69.2019
76.171875 108.288 66.5368
76.538086 108.218 63.8791
76.904297 108.129 61.2501
77.270508 108.020 58.6871
77.636719 107.896 56.2272
78.002930 107.760 53.8917
78.369141 107.619 51.6785
78.735352 107.477 49.5674
79.101562 107.333 47.5367
79.467773 107.183 45.5785
79.833984 107.027 43.7072
80.200195 106.862 41.9548
80.566406 106.692 40.3553
80.932617 106.526 38.9274
81.298828 106.372 37.6612
81.665039 106.238 36.5156
82.031250 106.128 35.4290
82.397461 106.038 34.3393
82.763672 105.965 33.2033
83.129883 105.899 32.0081
83.496094 105.836 30.7670
83.862305 105.774 29.5046
84.228516 105.712 28.2376
84.594727 105.654 26.9634
84.960938 105.601 25.6616
85.327148 105.552 24.3074
85.693359 105.501 22.8909
86.059570 105.442 21.4263
86.425781 105.372 19.9503
86.791992 105.293 18.5057
87.158203 105.210 17.1228
87.524414 105.128 15.8036
87.890625 105.054 14.5195
88.256836 104.988 13.2245
88.623047 104.927 11.8774
88.989258 104.864 10.4622
89.355469 104.791 8.9960
89.721680 104.704 7.5200
90.087891 104.603 6.0802
90.454102 104.492 4.7083
90.820312 104.375 3.4141
91.186523 104.254 2.1927
91.552734 104.129 1.0435
91.918945 103.998 -0.0173
92.285156 103.863 -0.9570
92.651367 103.729 -1.7422
93.017578 103.606 -2.3589
93.383789 103.505 -2.8239
93.750000 103.432 -3.1826
94.116211 103.396 -3.4998
94.482422 103.399 -3.8522
94.848633 103.438 -4.3261
95.214844 103.508 -5.0105
95.581055 103.595 -5.9777
95.947266 103.681 -7.2578
96.313477 103.747 -8.8206
96.679688 103.778 -10.5809
97.045898 103.769 -12.4222
97.412109 103.723 -14.2319
97.778320 103.649 -15.9279
98.144531 103.558 -17.4714
98.510742 103.461 -18.8592
98.876953 103.368 -20.1071
99.243164 103.283 -21.2379
99.609375 103.214 -22.2808
99.975586 103.165 -23.2809
100.341797 103.140 -24.3032
100.708008 103.136 -25.4224
101.074219 103.147 -26.7011
101.440430 103.159 -28.1689
101.806641 103.163 -29.8162
102.172852 103.148 -31.6051
102.539062 103.110 -33.4876
102.905273 103.048 -35.4207
103.271484 102.961 -37.3711
103.637695 102.848 -39.3094
104.003906 102.710 -41.1996
104.370117 102.548 -42.9954
104.736328 102.365 -44.6469
105.102539 102.172 -46.1191
105.468750 101.978 -47.4105
105.834961 101.794 -48.5585
106.201172 101.622 -49.6252
106.567383 101.460 -50.6672
106.933594 101.302 -51.7092
107.299805 101.142 -52.7379
107.666016 100.978 -53.7187
108.032227 100.813 -54.6226
108.398438 100.653 -55.4466
108.764648 100.502 -56.2141
109.130859 100.361 -56.9586
109.497070 100.225 -57.7042
109.863281 100.090 -58.4551
110.229492 99.955 -59.1996
110.595703 99.817 -59.9196
110.961914 99.676 -60.5964
111.328125 99.533 -61.2111
111.694336 99.391 -61.7437
112.060547 99.254 -62.1766
112.426758 99.128 -62.5054
112.792969 99.020 -62.7500
113.159180 98.937 -62.9573
113.525391 98.880 -63.1909
113.891602 98.845 -63.5117
114.257812 98.823 -63.9578
114.624023 98.805 -64.5336
114.990234 98.783 -65.2108
115.356445 98.755 -65.9417
115.722656 98.722 -66.6797
116.088867 98.690 -67.4019
116.455078 98.668 -68.1221
116.821289 98.657 -68.8870
117.187500 98.658 -69.7520
117.553711 98.661 -70.7520
117.919922 98.660 -71.8828
118.286133 98.647 -73.1091
118.652344 98.624 -74.3889
119.018555 98.593 -75.7034
119.384766 98.561 -77.0693
119.750977 98.526 -78.5273
120.117188 98.483 -80.1127
120.483398 98.423 -81.8283
120.849609 98.337 -83.6376
121.215820 98.222 -85.4805
121.582031 98.081 -87.3009
121.948242 97.917 -89.0693
122.314453 97.736 -90.7883
122.680664 97.538 -92.4775
123.046875 97.319 -94.1481
123.413086 97.075 -95.7846
123.779297 96.800 -97.3452
124.145508 96.497 -98.7803
124.511719 96.168 -100.0538
124.877930 95.816 -101.1529
125.244141 95.442 -102.0732
125.610352 95.042 -102.7899
125.976562 94.615 -103.2371
126.342773 94.163 -103.3203
126.708984 93.703 -102.9633
127.075195 93.253 -102.1627
127.441406 92.827 -100.9981
127.807617 92.422 -99.5623
128.173828 92.019 -97.8459
128.540039 91.608 -95.6706
128.906250 91.207 -92.7486
129.272461 90.876 -88.8807
129.638672 90.699 -84.1983
130.004883 90.732 -79.2278
130.371094 90.966 -74.6138
130.737305 91.337 -70.7383
131.103516 91.781 -67.6185
131.469727 92.265 -65.0915
131.835938 92.786 -63.0314
132.202148 93.348 -61.4380
132.568359 93.949 -60.3920
132.934570 94.569 -59.9599
133.300781 95.188 -60.1373
133.666992 95.786 -60.8550
134.033203 96.353 -62.0181
134.399414 96.886 -63.5392
134.765625 97.383 -65.3519
135.131836 97.846 -67.4058
135.498047 98.272 -69.6560
135.864258 98.665 -72.0578
136.230469 99.026 -74.5675
136.596680 99.359 -77.1504
136.962891 99.671 -79.7903
137.329102 99.968 -82.4945
137.695312 100.253 -85.2906
138.061523 100.526 -88.2139
138.427734 100.781 -91.2883
138.793945 101.013 -94.5130
139.160156 101.215 -97.8583
139.526367 101.386 -101.2769
139.892578 101.528 -104.7220
140.258789 101.643 -108.1644
140.625000 101.739 -111.5998
140.991211 101.816 -115.0409
141.357422 101.876 -118.5014
141.723633 101.916 -121.9811
142.089844 101.934 -125.4626
142.456055 101.932 -128.9207
142.822266 101.910 -132.3370
143.188477 101.875 -135.7123
143.554688 101.828 -139.0632
143.920898 101.769 -142.4102
144.287109 101.694 -145.7615
144.653320 101.601 -149.1051
145.019531 101.487 -152.4126
145.385742 101.355 -155.6537
145.751953 101.206 -158.8092
146.118164 101.047 -161.8768
146.484375 100.878 -164.8649
146.850586 100.699 -167.7793
147.216797 100.510 -170.6133
147.583008 100.313 -173.3481
147.949219 100.109 -175.9656
148.315430 99.907 -178.4641
148.681641 99.710 179.1310
149.047852 99.522 176.7729
149.414062 99.339 174.4144
149.780273 99.153 172.0312
150.146484 98.958 169.6357
150.512695 98.747 167.2726
150.878906 98.520 165.0002
151.245117 98.280 162.8685
151.611328 98.034 160.9060
151.977539 97.788 159.1191
152.343750 97.545 157.5054
152.709961 97.308 156.0659
153.076172 97.080 154.8115
153.442383 96.866 153.7566
153.808594 96.671 152.9076
154.174805 96.503 152.2560
154.541016 96.370 151.7780
154.907227 96.278 151.4391
155.273438 96.231 151.1963
155.639648 96.236 150.9941
156.005859 96.294 150.7629
156.372070 96.405 150.4231
156.738281 96.564 149.8982
157.104492 96.762 149.1300
157.470703 96.989 148.0861
157.836914 97.234 146.7563
158.203125 97.489 145.1458
158.569336 97.747 143.2681
158.935547 98.000 141.1442
159.301758 98.242 138.8035
159.667969 98.469 136.2830
160.034180 98.678 133.6240
160.400391 98.869 130.8667
160.766602 99.042 128.0457
161.132812 99.199 125.1868
161.499023 99.342 122.3096
161.865234 99.472 119.4285
162.231445 99.591 116.5575
162.597656 99.702 113.7102
162.963867 99.805 110.8994
163.330078 99.905 108.1342
163.696289 100.005 105.4163
164.062500 100.109 102.7380
164.428711 100.220 100.0834
164.794922 100.339 97.4302
165.161133 100.468 94.7551
165.527344 100.604 92.0386
165.893555 100.747 89.2659
166.259766 100.894 86.4270
166.625977 101.044 83.5146
166.992188 101.194 80.5239
167.358398 101.342 77.4521
167.724609 101.486 74.3009
168.090820 101.624 71.0765
168.457031 101.754 67.7882
168.823242 101.876 64.4448
169.189453 101.989 61.0515
169.555664 102.093 57.6085
169.921875 102.188 54.1121
170.288086 102.273 50.5569
170.654297 102.345 46.9395
171.020508 102.403 43.2598
171.386719 102.442 39.5232
171.752930 102.461 35.7416
172.119141 102.457 31.9332
172.485352 102.429 28.1223
172.851562 102.375 24.3356
173.217773 102.297 20.5983
173.583984 102.196 16.9303
173.950195 102.076 13.3445
174.316406 101.938 9.8486
174.682617 101.782 6.4490
175.048828 101.612 3.1539
175.415039 101.427 -0.0261
175.781250 101.232 -3.0830
176.147461 101.029 -6.0161
176.513672 100.822 -8.8361
176.879883 100.612 -11.5615
177.246094 100.399 -14.2140
177.612305 100.183 -16.8094
177.978516 99.961 -19.3556
178.344727 99.732 -21.8530
178.710938 99.493 -24.2994
179.077148 99.245 -26.6937
179.443359 98.986 -29.0360
179.809570 98.715 -31.3268
180.175781 98.430 -33.5641
180.541992 98.130 -35.7437
180.908203 97.811 -37.8575
181.274414 97.472 -39.8945
181.640625 97.108 -41.8369
182.006836 96.717 -43.6573
182.373047 96.297 -45.3171
182.739258 95.846 -46.7673
183.105469 95.364 -47.9536
183.471680 94.854 -48.8195
183.837891 94.319 -49.3068
184.204102 93.763 -49.3503
184.570312 93.193 -48.8700
184.936523 92.618 -47.7672
185.302734 92.059 -45.9359
185.668945 91.547 -43.2974
186.035156 91.122 -39.8561
186.401367 90.832 -35.7585
186.767578 90.709 -31.3054
187.133789 90.763 -26.8859
187.500000 90.975 -22.8580
187.866211 91.307 -19.4574
188.232422 91.718 -16.7805
188.598633 92.174 -14.8237
188.964844 92.647 -13.5319
189.331055 93.118 -12.8284
189.697266 93.573 -12.6271
190.063477 94.002 -12.8384
190.429688 94.401 -13.3730
190.795898 94.767 -14.1508
191.162109 95.103 -15.1069
191.528320 95.412 -16.1956
191.894531 95.698 -17.3867
192.260742 95.962 -18.6615
192.626953 96.207 -20.0065
192.993164 96.434 -21.4105
193.359375 96.645 -22.8651
193.725586 96.842 -24.3644
194.091797 97.026 -25.9048
194.458008 97.197 -27.4832
194.824219 97.354 -29.0948
195.190430 97.500 -30.7351
195.556641 97.635 -32.4008
195.922852 97.759 -34.0933
196.289062 97.872 -35.8185
196.655273 97.973 -37.5823
197.021484 98.061 -39.3850
197.387695 98.132 -41.2170
197.753906 98.185 -43.0591
198.120117 98.218 -44.8868
198.486328 98.233 -46.6780
198.852539 98.232 -48.4174
199.218750 98.216 -50.0977
199.584961 98.187 -51.7162
199.951172 98.144 -53.2693
200.317383 98.087 -54.7478
200.683594 98.016 -56.1354
201.049805 97.931 -57.4100
201.416016 97.834 -58.5479
201.782227 97.727 -59.5269
202.148438 97.614 -60.3291
202.514648 97.499 -60.9401
202.880859 97.386 -61.3439
203.247070 97.278 -61.5197
203.613281 97.184 -61.4417
203.979492 97.113 -61.0886
204.345703 97.080 -60.4635
204.711914 97.102 -59.6134
205.078125 97.192 -58.6387
205.444336 97.358 -57.6787
205.810547 97.599 -56.8823
206.176758 97.906 -56.3792
206.542969 98.267 -56.2686
206.909180 98.665 -56.6227
207.275391 99.085 -57.4919
207.641602 99.508 -58.9031
208.007812 99.914 -60.8502
208.374023 100.286 -63.2899
208.740234 100.606 -66.1436
209.106445 100.865 -69.3101
209.472656 101.056 -72.6810
209.838867 101.179 -76.1544
210.205078 101.237 -79.6428
210.571289 101.234 -83.0762
210.937500 101.175 -86.3986
211.303711 101.067 -89.5641
211.669922 100.915 -92.5338
212.036133 100.724 -95.2740
212.402344 100.502 -97.7576
212.768555 100.256 -99.9646
213.134766 99.992 -101.8839
213.500977 99.716 -103.5109
213.867188 99.436 -104.8444
214.233398 99.156 -105.8846
214.599609 98.882 -106.6313
214.965820 98.622 -107.0874
215.332031 98.382 -107.2612
215.698242 98.171 -107.1736
216.064453 97.998 -106.8600
216.430664 97.869 -106.3730
216.796875 97.790 -105.7804
217.163086 97.766 -105.1626
217.529297 97.794 -104.6061
217.895508 97.870 -104.1940
218.261719 97.986 -103.9948
218.627930 98.132 -104.0532
218.994141 98.295 -104.3872
219.360352 98.466 -104.9927
219.726562 98.638 -105.8524
220.092773 98.803 -106.9453
220.458984 98.959 -108.2507
220.825195 99.102 -109.7501
221.191406 99.228 -111.4268
221.557617 99.336 -113.2666
221.923828 99.423 -115.2604
222.290039 99.485 -117.4044
222.656250 99.520 -119.6960
223.022461 99.520 -122.1274
223.388672 99.478 -124.6760
223.754883 99.385 -127.3007
224.121094 99.237 -129.9432
224.487305 99.027 -132.5352
224.853516 98.753 -135.0049
225.219727 98.411 -137.2775
225.585938 97.995 -139.2625
225.952148 97.499 -140.8271
226.318359 96.918 -141.7625
226.684570 96.257 -141.7529
227.050781 95.548 -140.3839
227.416992 94.873 -137.2472
227.783203 94.370 -132.2262
228.149414 94.200 -125.8904
228.515625 94.440 -119.5250
228.881836 95.018 -114.4357
229.248047 95.776 -111.2303
229.614258 96.571 -109.8149
229.980469 97.319 -109.7810
230.346680 97.983 -110.6964
230.712891 98.557 -112.2161
231.079102 99.047 -114.0956
231.445312 99.467 -116.1724
231.811523 99.826 -118.3407
232.177734 100.138 -120.5319
232.543945 100.413 -122.7032
232.910156 100.661 -124.8318
233.276367 100.891 -126.9130
233.642578 101.111 -128.9584
234.008789 101.325 -130.9924
234.375000 101.536 -133.0443
234.741211 101.742 -135.1378
235.107422 101.942 -137.2825
235.473633 102.133 -139.4696
235.839844 102.313 -141.6760
236.206055 102.485 -143.8721
236.572266 102.650 -146.0339
236.938477 102.817 -148.1510
237.304688 102.991 -150.2301
237.670898 103.178 -152.2926
238.037109 103.382 -154.3705
238.403320 103.605 -156.5031
238.769531 103.850 -158.7355
239.135742 104.116 -161.1173
239.501953 104.400 -163.6996
239.868164 104.698 -166.5297
240.234375 105.003 -169.6443
240.600586 105.307 -173.0665
240.966797 105.600 -176.8035
241.333008 105.874 179.1533
241.699219 106.121 174.8262
242.065430 106.334 170.2493
242.431641 106.509 165.4648
242.797852 106.642 160.5198
243.164062 106.734 155.4587
243.530273 106.785 150.3203
243.896484 106.800 145.1315
244.262695 106.781 139.9072
244.628906 106.730 134.6508
244.995117 106.650 129.3549
245.361328 106.542 124.0048
245.727539 106.403 118.5812
246.093750 106.231 113.0646
246.459961 106.018 107.4413
246.826172 105.757 101.7115
247.192383 105.437 95.8969
247.558594 105.046 90.0459
247.924805 104.574 84.2378
248.291016 104.013 78.5818
248.657227 103.359 73.2150
249.023438 102.611 68.2991
249.389648 101.777 64.0142
249.755859 100.873 60.5520
250.122070 99.926 58.1003
250.488281 98.976 56.8142
250.854492 98.078 56.7651
251.220703 97.299 57.8719
251.586914 96.701 59.8429
251.953125 96.323 62.1886
252.319336 96.164 64.3424
252.685547 96.184 65.8336
253.051758 96.321 66.4000
253.417969 96.514 65.9918
253.784180 96.714 64.7062
254.150391 96.888 62.7118
254.516602 97.020 60.1919
254.882812 97.107 57.3088
255.249023 97.151 54.1854
255.615234 97.161 50.8965
255.981445 97.145 47.4718
256.347656 97.108 43.9044
256.713867 97.055 40.1633
257.080078 96.984 36.2059
257.446289 96.892 31.9856
257.812500 96.770 27.4554
258.178711 96.607 22.5695
258.544922 96.390 17.2816
258.911133 96.099 11.5477
259.277344 95.709 5.3263
259.643555 95.186 -1.4189
260.009766 94.486 -8.7177
260.375977 93.547 -16.5938
260.742188 92.273 -25.0750
261.108398 90.513 -34.2198
261.474609 87.977 -44.2175
261.840820 83.963 -55.8584
262.207031 75.696 -75.5780
262.573242 73.195 133.4170
262.939453 83.103 108.4542
263.305664 87.522 96.0544
263.671875 90.253 85.4558
264.038086 92.132 75.6130
264.404297 93.484 66.2819
264.770508 94.473 57.3826
265.136719 95.195 48.8811
265.502930 95.712 40.7570
265.869141 96.068 32.9940
266.235352 96.296 25.5746
266.601562 96.422 18.4724
266.967773 96.467 11.6469
267.333984 96.447 5.0402
267.700195 96.376 -1.4181
268.066406 96.259 -7.8029
268.432617 96.100 -14.1866
268.798828 95.900 -20.6392
269.165039 95.659 -27.2318
269.531250 95.377 -34.0464
269.897461 95.051 -41.1775
270.263672 94.675 -48.7290
270.629883 94.246 -56.8075
270.996094 93.761 -65.5197
271.362305 93.223 -74.9795
271.728516 92.650 -85.3191
272.094727 92.077 -96.6897
272.460938 91.558 -109.2297
272.827148 91.168 -122.9791
273.193359 90.991 -137.7546
273.559570 91.091 -153.0718
273.925781 91.485 -168.2366
274.291992 92.133 177.4044
274.658203 92.959 164.2466
275.024414 93.886 152.3894
275.390625 94.856 141.7268
275.756836 95.827 132.0591
276.123047 96.773 123.1714
276.489258 97.677 114.8757
276.855469 98.529 107.0267
277.221680 99.319 99.5215
277.587891 100.044 92.2939
277.954102 100.701 85.3047
278.320312 101.289 78.5342
278.686523 101.810 71.9774
279.052734 102.265 65.6394
279.418945 102.658 59.5305
279.785156 102.994 53.6617
280.151367 103.278 48.0405
280.517578 103.517 42.6688
280.883789 103.714 37.5439
281.250000 103.876 32.6604
281.616211 104.006 28.0138
281.982422 104.108 23.6001
282.348633 104.187 19.4130
282.714844 104.246 15.4412
283.081055 104.289 11.6669
283.447266 104.318 8.0687
283.813477 104.333 4.6285
284.179688 104.332 1.3389
284.545898 104.314 -1.7935
284.912109 104.277 -4.7493
285.278320 104.224 -7.5029
285.644531 104.159 -10.0317
286.010742 104.085 -12.3206
286.376953 104.008 -14.3644
286.743164 103.934 -16.1674
287.109375 103.868 -17.7406
287.475586 103.815 -19.1018
287.841797 103.779 -20.2756
288.208008 103.763 -21.2931
288.574219 103.768 -22.1876
288.940430 103.793 -22.9871
289.306641 103.837 -23.7070
289.672852 103.898 -24.3494
290.039062 103.977 -24.9058
290.405273 104.076 -25.3693
290.771484 104.201 -25.7446
291.137695 104.357 -26.0551
291.503906 104.549 -26.3402
291.870117 104.778 -26.6509
292.236328 105.044 -27.0387
292.602539 105.346 -27.5514
292.968750 105.678 -28.2306
293.334961 106.038 -29.1133
293.701172 106.420 -30.2330
294.067383 106.817 -31.6177
294.433594 107.223 -33.2861
294.799805 107.628 -35.2440
295.166016 108.026 -37.4823
295.532227 108.409 -39.9790
295.898438 108.772 -42.7043
296.264648 109.112 -45.6270
296.630859 109.427 -48.7174
296.997070 109.717 -51.9512
297.363281 109.981 -55.3077
297.729492 110.219 -58.7705
298.095703 110.432 -62.3264
298.461914 110.621 -65.9677
298.828125 110.786 -69.6934
299.194336 110.928 -73.5112
299.560547 111.047 -77.4365
299.926758 111.140 -81.4866
