* Measurement data measured by REW V5.20.8
* Source: ASIO hdspfire, Analog 1 (1)
* Format: 4M Log Swept Sine, 1 sweep at -12.0 dBFS with no timing reference
* Dated: 13 juin 2022 14:14:34
* REW Settings:
*  C-weighting compensation: Off
*  Target level: 75.0 dB
* Note: ; 
* Measurement: off_0x1400_3_3 juin 13
* Smoothing: None
* Frequency Step: 0.36621094 Hz
* Start Frequency: 0.36621094 Hz
*
* Freq(Hz) SPL(dB) Phase(degrees)
0.366211 10.177 153.9578
0.732422 -0.300 97.7431
1.098633 7.599 -33.2349
1.464844 13.148 -56.7752
1.831055 14.705 -69.7682
2.197266 14.072 -78.5538
2.563477 10.418 -89.4159
2.929688 -0.033 115.7976
3.295898 18.392 75.3203
3.662109 25.427 54.8251
4.028320 29.556 33.8081
4.394531 31.842 12.8950
4.760742 32.516 -6.0560
5.126953 31.523 -17.6760
5.493164 29.924 -6.7852
5.859375 33.317 16.5903
6.225586 38.549 13.4489
6.591797 42.410 -1.6890
6.958008 45.036 -19.3602
7.324219 46.726 -35.7910
7.690430 47.780 -48.5293
8.056641 48.666 -56.0038
8.422852 49.989 -59.4882
8.789062 51.914 -63.3628
9.155273 53.978 -70.2314
9.521484 55.741 -79.0538
9.887695 57.089 -87.5060
10.253906 58.199 -93.6031
10.620117 59.452 -96.9897
10.986328 61.133 -99.8705
11.352539 63.086 -105.0350
11.718750 64.918 -113.1084
12.084961 66.345 -122.8829
12.451172 67.256 -132.5388
12.817383 67.690 -140.0212
13.183594 67.901 -143.2483
13.549805 68.461 -141.6860
13.916016 69.881 -138.9539
14.282227 71.918 -139.9360
14.648438 73.963 -145.5991
15.014648 75.665 -154.3937
15.380859 76.916 -164.6222
15.747070 77.718 -174.9381
16.113281 78.122 175.8034
16.479492 78.243 168.6516
16.845703 78.300 164.3235
17.211914 78.589 162.4368
17.578125 79.301 161.0202
17.944336 80.319 157.8362
18.310547 81.348 152.1309
18.676758 82.150 144.5529
19.042969 82.611 136.2919
19.409180 82.725 128.6237
19.775391 82.582 122.7194
20.141602 82.383 119.2829
20.507812 82.382 117.8797
20.874023 82.699 116.8229
21.240234 83.204 114.5230
21.606445 83.657 110.7395
21.972656 83.901 106.3373
22.338867 83.913 102.5148
22.705078 83.791 100.2264
23.071289 83.706 99.7221
23.437500 83.798 100.3918
23.803711 84.060 101.3611
24.169922 84.423 102.3474
24.536133 84.865 103.7108
24.902344 85.472 105.7017
25.268555 86.365 107.7414
25.634766 87.553 108.6135
26.000977 88.904 107.4248
26.367188 90.254 104.0877
26.733398 91.489 99.0269
27.099609 92.555 92.7869
27.465820 93.431 85.8696
27.832031 94.117 78.7285
28.198242 94.630 71.8020
28.564453 95.010 65.5068
28.930664 95.333 60.1434
29.296875 95.699 55.7128
29.663086 96.197 51.7724
30.029297 96.853 47.5651
30.395508 97.609 42.4362
30.761719 98.365 36.1649
31.127930 99.032 28.9576
31.494141 99.563 21.2509
31.860352 99.954 13.5220
32.226562 100.230 6.1636
32.592773 100.438 -0.5995
32.958984 100.624 -6.7498
33.325195 100.829 -12.4419
33.691406 101.061 -17.8870
34.057617 101.304 -23.2150
34.423828 101.540 -28.4097
34.790039 101.761 -33.3468
35.156250 101.984 -37.9042
35.522461 102.236 -42.0750
35.888672 102.542 -46.0115
36.254883 102.903 -49.9568
36.621094 103.295 -54.0997
36.987305 103.682 -58.4623
37.353516 104.038 -62.9003
37.719727 104.362 -67.2019
38.085938 104.680 -71.2268
38.452148 105.026 -75.0139
38.818359 105.422 -78.7844
39.184570 105.858 -82.8148
39.550781 106.296 -87.2651
39.916992 106.692 -92.0878
40.283203 107.018 -97.0645
40.649414 107.273 -101.9160
41.015625 107.480 -106.4234
41.381836 107.678 -110.5187
41.748047 107.901 -114.3021
42.114258 108.164 -117.9711
42.480469 108.458 -121.7032
42.846680 108.766 -125.5767
43.212891 109.077 -129.5757
43.579102 109.381 -133.6494
43.945312 109.679 -137.7664
44.311523 109.972 -141.9308
44.677734 110.261 -146.1589
45.043945 110.543 -150.4514
45.410156 110.817 -154.7871
45.776367 111.085 -159.1449
46.142578 111.354 -163.5317
46.508789 111.627 -167.9924
46.875000 111.903 -172.5898
47.241211 112.175 -177.3699
47.607422 112.433 177.6609
47.973633 112.669 172.5303
48.339844 112.881 167.2725
48.706055 113.074 161.8997
49.072266 113.247 156.3879
49.438477 113.400 150.6885
49.804688 113.523 144.7571
50.170898 113.604 138.5796
50.537109 113.628 132.1855
50.903320 113.584 125.6414
51.269531 113.466 119.0347
51.635742 113.274 112.4551
52.001953 113.013 105.9766
52.368164 112.688 99.6479
52.734375 112.307 93.4890
53.100586 111.876 87.4963
53.466797 111.397 81.6550
53.833008 110.866 75.9575
54.199219 110.279 70.4199
54.565430 109.632 65.0911
54.931641 108.923 60.0491
55.297852 108.158 55.3835
55.664062 107.347 51.1705
56.030273 106.507 47.4468
56.396484 105.656 44.1996
56.762695 104.807 41.3702
57.128906 103.969 38.8711
57.495117 103.146 36.5973
57.861328 102.333 34.4299
58.227539 101.520 32.2462
58.593750 100.679 29.9528
58.959961 99.772 27.5387
59.326172 98.757 25.1215
59.692383 97.596 22.9564
60.058594 96.268 21.4050
60.424805 94.768 20.8829
60.791016 93.103 21.8303
61.157227 91.277 24.7906
61.523438 89.306 30.6892
61.889648 87.314 41.1832
62.255859 85.783 57.8723
62.622070 85.513 78.1926
62.988281 86.525 94.9944
63.354492 87.997 105.4468
63.720703 89.406 111.2751
64.086914 90.624 114.4019
64.453125 91.658 115.8862
64.819336 92.524 116.2361
65.185547 93.223 115.7991
65.551758 93.748 114.9727
65.917969 94.109 114.2313
66.284180 94.351 114.0264
66.650391 94.556 114.6165
67.016602 94.813 115.9109
67.382812 95.183 117.4730
67.749023 95.668 118.7600
68.115234 96.222 119.4204
68.481445 96.789 119.3993
68.847656 97.331 118.8380
69.213867 97.835 117.9264
69.580078 98.306 116.8085
69.946289 98.753 115.5546
70.312500 99.186 114.1747
70.678711 99.610 112.6448
71.044922 100.025 110.9326
71.411133 100.427 109.0154
71.777344 100.810 106.8909
72.143555 101.170 104.5774
72.509766 101.502 102.1042
72.875977 101.806 99.4983
73.242188 102.081 96.7766
73.608398 102.326 93.9501
73.974609 102.536 91.0388
74.340820 102.708 88.0853
74.707031 102.842 85.1550
75.073242 102.945 82.3167
75.439453 103.026 79.6117
75.805664 103.099 77.0317
76.171875 103.171 74.5188
76.538086 103.245 71.9951
76.904297 103.311 69.4052
77.270508 103.363 66.7393
77.636719 103.396 64.0275
78.002930 103.408 61.3093
78.369141 103.403 58.6033
78.735352 103.386 55.8953
79.101562 103.353 53.1571
79.467773 103.296 50.3770
79.833984 103.207 47.5844
80.200195 103.080 44.8503
80.566406 102.917 42.2629
80.932617 102.727 39.8938
81.298828 102.524 37.7715
81.665039 102.320 35.8763
82.031250 102.123 34.1594
82.397461 101.933 32.5736
82.763672 101.751 31.0941
83.129883 101.574 29.7192
83.496094 101.407 28.4512
83.862305 101.253 27.2738
84.228516 101.116 26.1439
84.594727 100.997 25.0015
84.960938 100.890 23.7931
85.327148 100.786 22.4945
85.693359 100.677 21.1168
86.059570 100.554 19.6975
86.425781 100.418 18.2842
86.791992 100.268 16.9177
87.158203 100.108 15.6262
87.524414 99.943 14.4242
87.890625 99.778 13.3127
88.256836 99.617 12.2780
88.623047 99.465 11.2858
88.989258 99.324 10.2805
89.355469 99.189 9.1984
89.721680 99.049 7.9910
90.087891 98.889 6.6527
90.454102 98.695 5.2361
90.820312 98.454 3.8466
91.186523 98.166 2.6188
91.552734 97.838 1.6823
91.918945 97.488 1.1248
92.285156 97.133 0.9695
92.651367 96.792 1.1792
93.017578 96.472 1.6909
93.383789 96.175 2.4652
93.750000 95.900 3.5149
94.116211 95.658 4.8871
94.482422 95.468 6.5985
94.848633 95.355 8.5608
95.214844 95.339 10.5599
95.581055 95.411 12.3270
95.947266 95.544 13.6626
96.313477 95.697 14.5227
96.679688 95.837 15.0132
97.045898 95.952 15.3149
97.412109 96.046 15.5983
97.778320 96.134 15.9619
98.144531 96.236 16.4139
98.510742 96.364 16.8959
98.876953 96.522 17.3279
99.243164 96.708 17.6420
99.609375 96.919 17.7938
99.975586 97.150 17.7505
100.341797 97.395 17.4822
100.708008 97.648 16.9624
101.074219 97.901 16.1785
101.440430 98.144 15.1401
101.806641 98.369 13.8792
102.172852 98.571 12.4387
102.539062 98.746 10.8619
102.905273 98.896 9.1854
103.271484 99.018 7.4398
103.637695 99.111 5.6555
104.003906 99.179 3.8676
104.370117 99.221 2.1113
104.736328 99.244 0.4149
105.102539 99.253 -1.2123
105.468750 99.252 -2.7816
105.834961 99.242 -4.3153
106.201172 99.223 -5.8292
106.567383 99.190 -7.3180
106.933594 99.142 -8.7532
107.299805 99.080 -10.0975
107.666016 99.010 -11.3253
108.032227 98.938 -12.4370
108.398438 98.870 -13.4578
108.764648 98.807 -14.4204
109.130859 98.746 -15.3452
109.497070 98.686 -16.2333
109.863281 98.624 -17.0720
110.229492 98.563 -17.8527
110.595703 98.506 -18.5787
110.961914 98.451 -19.2620
111.328125 98.399 -19.9104
111.694336 98.349 -20.5182
112.060547 98.302 -21.0695
112.426758 98.260 -21.5530
112.792969 98.230 -21.9768
113.159180 98.213 -22.3699
113.525391 98.211 -22.7695
113.891602 98.220 -23.2030
114.257812 98.235 -23.6752
114.624023 98.253 -24.1746
114.990234 98.273 -24.6842
115.356445 98.297 -25.1959
115.722656 98.326 -25.7125
116.088867 98.361 -26.2439
116.455078 98.401 -26.7987
116.821289 98.446 -27.3812
117.187500 98.493 -27.9915
117.553711 98.542 -28.6293
117.919922 98.594 -29.2941
118.286133 98.646 -29.9834
118.652344 98.698 -30.6913
119.018555 98.750 -31.4091
119.384766 98.803 -32.1289
119.750977 98.860 -32.8506
120.117188 98.923 -33.5836
120.483398 98.992 -34.3447
120.849609 99.066 -35.1536
121.215820 99.144 -36.0244
121.582031 99.223 -36.9623
121.948242 99.299 -37.9612
122.314453 99.368 -39.0050
122.680664 99.430 -40.0730
123.046875 99.486 -41.1438
123.413086 99.537 -42.2008
123.779297 99.585 -43.2356
124.145508 99.632 -44.2477
124.511719 99.682 -45.2417
124.877930 99.734 -46.2233
125.244141 99.790 -47.1978
125.610352 99.852 -48.1714
125.976562 99.919 -49.1575
126.342773 99.994 -50.1775
126.708984 100.075 -51.2579
127.075195 100.157 -52.4183
127.441406 100.234 -53.6582
127.807617 100.303 -54.9530
128.173828 100.360 -56.2627
128.540039 100.410 -57.5498
128.906250 100.456 -58.7994
129.272461 100.505 -60.0251
129.638672 100.558 -61.2574
130.004883 100.613 -62.5220
130.371094 100.665 -63.8217
130.737305 100.712 -65.1361
131.103516 100.754 -66.4402
131.469727 100.796 -67.7244
131.835938 100.840 -69.0039
132.202148 100.885 -70.3065
132.568359 100.928 -71.6465
132.934570 100.962 -73.0076
133.300781 100.985 -74.3438
133.666992 100.998 -75.5996
134.033203 101.010 -76.7383
134.399414 101.031 -77.7572
134.765625 101.068 -78.6870
135.131836 101.126 -79.5752
135.498047 101.205 -80.4688
135.864258 101.304 -81.4043
136.230469 101.421 -82.4091
136.596680 101.552 -83.5011
136.962891 101.693 -84.6897
137.329102 101.844 -85.9744
137.695312 102.002 -87.3496
138.061523 102.168 -88.8181
138.427734 102.344 -90.4003
138.793945 102.530 -92.1323
139.160156 102.719 -94.0516
139.526367 102.903 -96.1746
139.892578 103.073 -98.4827
140.258789 103.221 -100.9275
140.625000 103.346 -103.4486
140.991211 103.450 -105.9962
141.357422 103.540 -108.5469
141.723633 103.619 -111.1027
142.089844 103.690 -113.6797
142.456055 103.752 -116.2906
142.822266 103.802 -118.9349
143.188477 103.839 -121.5995
143.554688 103.865 -124.2677
143.920898 103.881 -126.9286
144.287109 103.889 -129.5812
144.653320 103.890 -132.2314
145.019531 103.885 -134.8853
145.385742 103.874 -137.5448
145.751953 103.857 -140.2096
146.118164 103.835 -142.8801
146.484375 103.808 -145.5615
146.850586 103.776 -148.2625
147.216797 103.736 -150.9883
147.583008 103.686 -153.7356
147.949219 103.626 -156.4899
148.315430 103.555 -159.2312
148.681641 103.475 -161.9441
149.047852 103.389 -164.6251
149.414062 103.301 -167.2875
149.780273 103.209 -169.9541
150.146484 103.115 -172.6465
150.512695 103.013 -175.3743
150.878906 102.899 -178.1307
151.245117 102.772 179.1042
151.611328 102.631 176.3552
151.977539 102.477 173.6407
152.343750 102.313 170.9677
152.709961 102.141 168.3289
153.076172 101.960 165.7112
153.442383 101.769 163.1044
153.808594 101.562 160.5110
154.174805 101.337 157.9529
154.541016 101.089 155.4680
154.907227 100.819 153.1022
155.273438 100.530 150.8983
155.639648 100.228 148.8865
156.005859 99.917 147.0817
156.372070 99.604 145.4897
156.738281 99.291 144.1132
157.104492 98.985 142.9551
157.470703 98.689 142.0149
157.836914 98.409 141.2794
158.203125 98.152 140.7197
158.569336 97.919 140.2975
158.935547 97.709 139.9802
159.301758 97.520 139.7549
159.667969 97.352 139.6272
160.034180 97.205 139.6100
160.400391 97.084 139.7057
160.766602 96.996 139.8942
161.132812 96.945 140.1349
161.499023 96.931 140.3789
161.865234 96.951 140.5833
162.231445 97.002 140.7205
162.597656 97.080 140.7820
162.963867 97.182 140.7721
163.330078 97.307 140.6993
163.696289 97.459 140.5626
164.062500 97.640 140.3414
164.428711 97.852 139.9934
164.794922 98.094 139.4644
165.161133 98.360 138.7052
165.527344 98.641 137.6873
165.893555 98.928 136.4056
166.259766 99.215 134.8723
166.625977 99.494 133.1068
166.992188 99.763 131.1285
167.358398 100.015 128.9584
167.724609 100.248 126.6227
168.090820 100.458 124.1562
168.457031 100.644 121.5989
168.823242 100.806 118.9869
169.189453 100.949 116.3448
169.555664 101.073 113.6823
169.921875 101.181 110.9963
170.288086 101.273 108.2820
170.654297 101.346 105.5408
171.020508 101.398 102.7852
171.386719 101.426 100.0372
171.752930 101.431 97.3243
172.119141 101.411 94.6737
172.485352 101.368 92.1122
172.851562 101.303 89.6675
173.217773 101.218 87.3687
173.583984 101.116 85.2441
173.950195 101.003 83.3170
174.316406 100.884 81.5985
174.682617 100.765 80.0883
175.048828 100.648 78.7803
175.415039 100.538 77.6731
175.781250 100.436 76.7751
176.147461 100.349 76.0995
176.513672 100.285 75.6484
176.879883 100.253 75.3989
177.246094 100.262 75.2965
177.612305 100.315 75.2684
177.978516 100.413 75.2438
178.344727 100.551 75.1689
178.710938 100.724 75.0088
179.077148 100.929 74.7388
179.443359 101.162 74.3365
179.809570 101.419 73.7832
180.175781 101.695 73.0691
180.541992 101.985 72.1975
180.908203 102.288 71.1786
181.274414 102.601 70.0186
181.640625 102.927 68.7108
182.006836 103.264 67.2373
182.373047 103.609 65.5775
182.739258 103.959 63.7197
183.105469 104.309 61.6658
183.471680 104.655 59.4255
183.837891 104.997 57.0071
184.204102 105.335 54.4083
184.570312 105.667 51.6154
184.936523 105.991 48.6089
185.302734 106.301 45.3728
185.668945 106.591 41.9026
186.035156 106.853 38.2096
186.401367 107.080 34.3195
186.767578 107.268 30.2695
187.133789 107.411 26.1061
187.500000 107.508 21.8792
187.866211 107.558 17.6406
188.232422 107.563 13.4406
188.598633 107.526 9.3226
188.964844 107.452 5.3214
189.331055 107.346 1.4598
189.697266 107.214 -2.2528
190.063477 107.061 -5.8184
190.429688 106.890 -9.2465
190.795898 106.702 -12.5491
191.162109 106.499 -15.7347
191.528320 106.280 -18.8053
191.894531 106.045 -21.7552
192.260742 105.793 -24.5729
192.626953 105.525 -27.2448
192.993164 105.243 -29.7589
193.359375 104.950 -32.1058
193.725586 104.647 -34.2793
194.091797 104.337 -36.2732
194.458008 104.022 -38.0804
194.824219 103.705 -39.6941
195.190430 103.389 -41.1091
195.556641 103.080 -42.3286
195.922852 102.781 -43.3662
196.289062 102.497 -44.2465
196.655273 102.229 -45.0001
197.021484 101.977 -45.6561
197.387695 101.740 -46.2334
197.753906 101.514 -46.7382
198.120117 101.299 -47.1666
198.486328 101.095 -47.5125
198.852539 100.904 -47.7750
199.218750 100.728 -47.9642
199.584961 100.569 -48.0975
199.951172 100.426 -48.1949
200.317383 100.298 -48.2714
200.683594 100.184 -48.3342
201.049805 100.082 -48.3853
201.416016 99.992 -48.4236
201.782227 99.913 -48.4507
202.148438 99.846 -48.4706
202.514648 99.791 -48.4895
202.880859 99.748 -48.5138
203.247070 99.715 -48.5485
203.613281 99.692 -48.5944
203.979492 99.679 -48.6490
204.345703 99.676 -48.7083
204.711914 99.684 -48.7709
205.078125 99.704 -48.8435
205.444336 99.740 -48.9426
205.810547 99.789 -49.0890
206.176758 99.851 -49.3008
206.542969 99.922 -49.5856
206.909180 100.000 -49.9401
207.275391 100.086 -50.3566
207.641602 100.180 -50.8320
208.007812 100.285 -51.3773
208.374023 100.401 -52.0162
208.740234 100.528 -52.7803
209.106445 100.663 -53.6998
209.472656 100.800 -54.7968
209.838867 100.934 -56.0811
210.205078 101.058 -57.5511
210.571289 101.166 -59.1943
210.937500 101.254 -60.9884
211.303711 101.317 -62.9037
211.669922 101.354 -64.9050
212.036133 101.362 -66.9575
212.402344 101.342 -69.0298
212.768555 101.296 -71.0973
213.134766 101.226 -73.1426
213.500977 101.131 -75.1532
213.867188 101.014 -77.1188
214.233398 100.875 -79.0295
214.599609 100.714 -80.8757
214.965820 100.531 -82.6466
215.332031 100.325 -84.3291
215.698242 100.095 -85.9022
216.064453 99.839 -87.3312
216.430664 99.558 -88.5656
216.796875 99.254 -89.5431
217.163086 98.938 -90.2035
217.529297 98.622 -90.5073
217.895508 98.323 -90.4518
218.261719 98.056 -90.0767
218.627930 97.833 -89.4567
218.994141 97.663 -88.6853
219.360352 97.548 -87.8634
219.726562 97.488 -87.0928
220.092773 97.479 -86.4734
220.458984 97.510 -86.0941
220.825195 97.569 -86.0187
221.191406 97.640 -86.2756
221.557617 97.711 -86.8625
221.923828 97.769 -87.7598
222.290039 97.806 -88.9464
222.656250 97.814 -90.4047
223.022461 97.782 -92.1112
223.388672 97.699 -94.0223
223.754883 97.553 -96.0654
224.121094 97.340 -98.1429
224.487305 97.056 -100.1514
224.853516 96.707 -102.0049
225.219727 96.298 -103.6511
225.585938 95.831 -105.0695
225.952148 95.300 -106.2424
226.318359 94.695 -107.1125
226.684570 93.999 -107.5420
227.050781 93.201 -107.2863
227.416992 92.304 -105.9901
227.783203 91.333 -103.2051
228.149414 90.357 -98.4486
228.515625 89.503 -91.3750
228.881836 88.951 -82.1349
229.248047 88.873 -71.7537
229.614258 89.304 -61.9064
229.980469 90.111 -53.9634
230.346680 91.101 -48.3767
230.712891 92.123 -44.9060
231.079102 93.094 -43.0759
231.445312 93.980 -42.4412
231.811523 94.773 -42.6697
232.177734 95.473 -43.5378
232.543945 96.084 -44.8949
232.910156 96.606 -46.6260
233.276367 97.039 -48.6255
233.642578 97.382 -50.7872
234.008789 97.637 -53.0033
234.375000 97.808 -55.1685
234.741211 97.901 -57.1830
235.107422 97.923 -58.9518
235.473633 97.883 -60.3827
235.839844 97.796 -61.3883
236.206055 97.678 -61.8949
236.572266 97.551 -61.8572
236.938477 97.438 -61.2736
237.304688 97.362 -60.1937
237.670898 97.343 -58.7114
238.037109 97.392 -56.9476
238.403320 97.517 -55.0305
238.769531 97.717 -53.0822
239.135742 97.991 -51.2122
239.501953 98.332 -49.5154
239.868164 98.733 -48.0718
240.234375 99.184 -46.9474
240.600586 99.676 -46.1947
240.966797 100.197 -45.8544
241.333008 100.734 -45.9528
241.699219 101.276 -46.5002
242.065430 101.809 -47.4893
242.431641 102.321 -48.8943
242.797852 102.800 -50.6726
243.164062 103.237 -52.7661
243.530273 103.625 -55.1041
243.896484 103.962 -57.6075
244.262695 104.245 -60.1948
244.628906 104.478 -62.7899
244.995117 104.666 -65.3308
245.361328 104.818 -67.7740
245.727539 104.941 -70.0952
246.093750 105.043 -72.2865
246.459961 105.129 -74.3506
246.826172 105.206 -76.2966
247.192383 105.277 -78.1410
247.558594 105.347 -79.9073
247.924805 105.417 -81.6256
248.291016 105.488 -83.3275
248.657227 105.558 -85.0374
249.023438 105.621 -86.7662
249.389648 105.674 -88.5093
249.755859 105.716 -90.2507
250.122070 105.745 -91.9723
250.488281 105.763 -93.6599
250.854492 105.769 -95.3051
251.220703 105.765 -96.9041
251.586914 105.751 -98.4524
251.953125 105.727 -99.9419
252.319336 105.694 -101.3608
252.685547 105.652 -102.6978
253.051758 105.605 -103.9446
253.417969 105.554 -105.0997
253.784180 105.502 -106.1675
254.150391 105.449 -107.1556
254.516602 105.396 -108.0725
254.882812 105.344 -108.9230
255.249023 105.291 -109.7089
255.615234 105.237 -110.4274
255.981445 105.182 -111.0717
256.347656 105.125 -111.6302
256.713867 105.066 -112.0862
257.080078 105.006 -112.4153
257.446289 104.947 -112.5872
257.812500 104.894 -112.5692
258.178711 104.856 -112.3324
258.544922 104.842 -111.8633
258.911133 104.867 -111.1748
259.277344 104.946 -110.3164
259.643555 105.091 -109.3812
260.009766 105.311 -108.5035
260.375977 105.608 -107.8466
260.742188 105.970 -107.5763
261.108398 106.380 -107.8295
261.474609 106.809 -108.6868
261.840820 107.229 -110.1598
262.207031 107.615 -112.1927
262.573242 107.943 -114.6786
262.939453 108.200 -117.4773
263.305664 108.379 -120.4349
263.671875 108.482 -123.3997
264.038086 108.514 -126.2352
264.404297 108.490 -128.8303
264.770508 108.426 -131.1089
265.136719 108.339 -133.0348
265.502930 108.250 -134.6151
265.869141 108.174 -135.8973
266.235352 108.122 -136.9579
266.601562 108.101 -137.8875
266.967773 108.110 -138.7721
267.333984 108.147 -139.6796
267.700195 108.206 -140.6554
268.066406 108.281 -141.7269
268.432617 108.367 -142.9121
268.798828 108.462 -144.2266
269.165039 108.559 -145.6846
269.531250 108.652 -147.2935
269.897461 108.737 -149.0494
270.263672 108.807 -150.9344
270.629883 108.857 -152.9215
270.996094 108.886 -154.9812
271.362305 108.893 -157.0867
271.728516 108.876 -159.2163
272.094727 108.835 -161.3491
272.460938 108.770 -163.4603
272.827148 108.681 -165.5204
273.193359 108.569 -167.4994
273.559570 108.438 -169.3730
273.925781 108.292 -171.1302
274.291992 108.135 -172.7728
274.658203 107.967 -174.3085
275.024414 107.790 -175.7428
275.390625 107.602 -177.0706
275.756836 107.402 -178.2759
276.123047 107.192 -179.3363
276.489258 106.974 179.7722
276.855469 106.752 179.0692
277.221680 106.529 178.5695
277.587891 106.311 178.2817
277.954102 106.104 178.2065
278.320312 105.914 178.3337
278.686523 105.746 178.6417
279.052734 105.604 179.1012
279.418945 105.490 179.6831
279.785156 105.405 -179.6344
280.151367 105.349 -178.8655
280.517578 105.326 -178.0215
280.883789 105.338 -177.1198
281.250000 105.389 -176.1888
281.616211 105.483 -175.2688
281.982422 105.620 -174.4086
282.348633 105.802 -173.6615
282.714844 106.025 -173.0823
283.081055 106.286 -172.7256
283.447266 106.579 -172.6407
283.813477 106.896 -172.8666
284.179688 107.227 -173.4279
284.545898 107.563 -174.3326
284.912109 107.895 -175.5740
285.278320 108.213 -177.1328
285.644531 108.510 -178.9800
286.010742 108.780 178.9216
286.376953 109.018 176.6165
286.743164 109.221 174.1550
287.109375 109.387 171.5907
287.475586 109.518 168.9741
287.841797 109.616 166.3496
288.208008 109.687 163.7485
288.574219 109.735 161.1886
288.940430 109.766 158.6746
289.306641 109.784 156.2012
289.672852 109.790 153.7583
290.039062 109.787 151.3348
290.405273 109.775 148.9194
290.771484 109.755 146.5011
291.137695 109.727 144.0693
291.503906 109.689 141.6154
291.870117 109.639 139.1355
292.236328 109.576 136.6338
292.602539 109.498 134.1215
292.968750 109.404 131.6149
293.334961 109.295 129.1279
293.701172 109.173 126.6681
294.067383 109.040 124.2340
294.433594 108.897 121.8188
294.799805 108.742 119.4167
295.166016 108.574 117.0302
295.532227 108.393 114.6708
295.898438 108.199 112.3560
296.264648 107.993 110.1021
296.630859 107.780 107.9149
296.997070 107.564 105.7866
297.363281 107.346 103.6963
297.729492 107.130 101.6155
298.095703 106.913 99.5168
298.461914 106.693 97.3773
298.828125 106.467 95.1808
299.194336 106.231 92.9165
299.560547 105.983 90.5778
299.926758 105.717 88.1631
