* Measurement data measured by REW V5.20.8
* Source: ASIO hdspfire, Analog 1 (1)
* Format: 4M Log Swept Sine, 1 sweep at -12.0 dBFS with no timing reference
* Dated: 13 juin 2022 13:50:42
* REW Settings:
*  C-weighting compensation: Off
*  Target level: 75.0 dB
* Note: ; 
* Measurement: off_0x1400_2_1 juin 13
* Smoothing: None
* Frequency Step: 0.36621094 Hz
* Start Frequency: 0.36621094 Hz
*
* Freq(Hz) SPL(dB) Phase(degrees)
0.366211 19.273 -2.6398
0.732422 18.917 13.3207
1.098633 22.715 31.5254
1.464844 27.251 28.9976
1.831055 30.295 17.1309
2.197266 31.677 2.9320
2.563477 31.203 -9.2891
2.929688 28.328 -10.0941
3.295898 26.264 30.3545
3.662109 32.091 54.9285
4.028320 36.326 48.1013
4.394531 38.384 34.4108
4.760742 38.743 20.5018
5.126953 37.627 11.4245
5.493164 35.888 15.5123
5.859375 36.581 30.6282
6.225586 39.544 31.4378
6.591797 42.096 18.5073
6.958008 43.860 0.3855
7.324219 45.136 -18.0209
7.690430 46.310 -33.8167
8.056641 47.770 -46.3507
8.422852 49.656 -57.6041
8.789062 51.685 -69.8234
9.155273 53.417 -83.2134
9.521484 54.546 -96.1894
9.887695 54.978 -105.9701
10.253906 55.025 -108.6161
10.620117 55.845 -102.9250
10.986328 58.262 -98.3711
11.352539 61.146 -102.4323
11.718750 63.474 -112.6301
12.084961 64.962 -125.1383
12.451172 65.571 -136.9222
12.817383 65.375 -144.6117
13.183594 64.871 -143.6757
13.549805 65.548 -133.8727
13.916016 68.064 -127.6984
14.282227 70.925 -131.4385
14.648438 73.224 -141.3639
15.014648 74.803 -153.9583
15.380859 75.688 -167.1324
15.747070 75.918 -179.3333
16.113281 75.559 171.1491
16.479492 74.811 166.5913
16.845703 74.279 168.7925
17.211914 74.832 174.5514
17.578125 76.386 176.3147
17.944336 78.048 171.7516
18.310547 79.270 162.9874
18.676758 79.878 152.3856
19.042969 79.827 141.8233
19.409180 79.107 133.1536
19.775391 77.788 128.8141
20.141602 76.228 132.0238
20.507812 75.402 143.7568
20.874023 76.077 157.1489
21.240234 77.608 165.7856
21.606445 79.304 170.4747
21.972656 81.052 172.8923
22.338867 82.853 173.2076
22.705078 84.605 171.3165
23.071289 86.182 167.7506
23.437500 87.540 163.4909
23.803711 88.725 159.4491
24.169922 89.872 156.0264
24.536133 91.111 152.8820
24.902344 92.488 149.1725
25.268555 93.940 144.1814
25.634766 95.363 137.7125
26.000977 96.676 129.9867
26.367188 97.838 121.3685
26.733398 98.839 112.1931
27.099609 99.681 102.7205
27.465820 100.370 93.1625
27.832031 100.917 83.7252
28.198242 101.337 74.6287
28.564453 101.665 66.0782
28.930664 101.950 58.1820
29.296875 102.251 50.8509
29.663086 102.609 43.7655
30.029297 103.026 36.4921
30.395508 103.463 28.7005
30.761719 103.857 20.3184
31.127930 104.155 11.5312
31.494141 104.333 2.6788
31.860352 104.399 -5.8713
32.226562 104.387 -13.8404
32.592773 104.342 -21.1257
32.958984 104.307 -27.8268
33.325195 104.305 -34.1691
33.691406 104.327 -40.3561
34.057617 104.350 -46.4508
34.423828 104.355 -52.3679
34.790039 104.344 -57.9624
35.156250 104.335 -63.1460
35.522461 104.353 -67.9595
35.888672 104.410 -72.5549
36.254883 104.499 -77.0984
36.621094 104.598 -81.6681
36.987305 104.687 -86.2201
37.353516 104.758 -90.6351
37.719727 104.821 -94.8037
38.085938 104.895 -98.7015
38.452148 104.999 -102.4142
38.818359 105.138 -106.0986
39.184570 105.304 -109.9057
39.550781 105.473 -113.9118
39.916992 105.625 -118.0991
40.283203 105.744 -122.3804
40.649414 105.824 -126.6436
41.015625 105.872 -130.7910
41.381836 105.895 -134.7622
41.748047 105.905 -138.5364
42.114258 105.913 -142.1224
42.480469 105.924 -145.5479
42.846680 105.946 -148.8541
43.212891 105.984 -152.0958
43.579102 106.034 -155.3351
43.945312 106.089 -158.6247
44.311523 106.137 -161.9855
44.677734 106.170 -165.3949
45.043945 106.184 -168.7960
45.410156 106.179 -172.1281
45.776367 106.163 -175.3584
46.142578 106.144 -178.4996
46.508789 106.126 178.4008
46.875000 106.104 175.2923
47.241211 106.071 172.1502
47.607422 106.019 168.9866
47.973633 105.942 165.8381
48.339844 105.836 162.7478
48.706055 105.702 159.7565
49.072266 105.540 156.9067
49.438477 105.349 154.2505
49.804688 105.137 151.8455
50.170898 104.915 149.7319
50.537109 104.698 147.9031
50.903320 104.498 146.2903
51.269531 104.321 144.7817
51.635742 104.158 143.2712
52.001953 103.996 141.7051
52.368164 103.816 140.1013
52.734375 103.608 138.5354
53.100586 103.369 137.1143
53.466797 103.101 135.9488
53.833008 102.820 135.1311
54.199219 102.545 134.7070
54.565430 102.300 134.6448
54.931641 102.105 134.8217
55.297852 101.963 135.0563
55.664062 101.862 135.1915
56.030273 101.775 135.1763
56.396484 101.681 135.0896
56.762695 101.573 135.0893
57.128906 101.464 135.3184
57.495117 101.378 135.8212
57.861328 101.339 136.5200
58.227539 101.355 137.2714
58.593750 101.419 137.9582
58.959961 101.517 138.5459
59.326172 101.641 139.0630
59.692383 101.793 139.5377
60.058594 101.985 139.9456
60.424805 102.219 140.2061
60.791016 102.492 140.2218
61.157227 102.792 139.9271
61.523438 103.101 139.3093
61.889648 103.408 138.3981
62.255859 103.705 137.2402
62.622070 103.988 135.8765
62.988281 104.258 134.3335
63.354492 104.514 132.6279
63.720703 104.754 130.7761
64.086914 104.975 128.8027
64.453125 105.175 126.7426
64.819336 105.356 124.6342
65.185547 105.522 122.5063
65.551758 105.681 120.3666
65.917969 105.835 118.1953
66.284180 105.986 115.9534
66.650391 106.132 113.6004
67.016602 106.267 111.1140
67.382812 106.382 108.5020
67.749023 106.472 105.7995
68.115234 106.533 103.0554
68.481445 106.568 100.3138
68.847656 106.581 97.6011
69.213867 106.575 94.9230
69.580078 106.552 92.2723
69.946289 106.512 89.6422
70.312500 106.454 87.0380
70.678711 106.375 84.4805
71.044922 106.276 81.9993
71.411133 106.162 79.6202
71.777344 106.038 77.3519
72.143555 105.908 75.1807
72.509766 105.776 73.0767
72.875977 105.641 71.0081
73.242188 105.499 68.9587
73.608398 105.345 66.9362
73.974609 105.178 64.9672
74.340820 105.000 63.0806
74.707031 104.815 61.2888
75.073242 104.629 59.5775
75.439453 104.442 57.9142
75.805664 104.251 56.2684
76.171875 104.051 54.6345
76.538086 103.834 53.0374
76.904297 103.598 51.5203
77.270508 103.352 50.1163
77.636719 103.100 48.8247
78.002930 102.848 47.6068
78.369141 102.592 46.4094
78.735352 102.324 45.2032
79.101562 102.029 44.0131
79.467773 101.697 42.9216
79.833984 101.328 42.0454
80.200195 100.927 41.4944
80.566406 100.511 41.3324
80.932617 100.099 41.5567
81.298828 99.700 42.1099
81.665039 99.317 42.9214
82.031250 98.941 43.9610
82.397461 98.562 45.2745
82.763672 98.176 46.9887
83.129883 97.793 49.2766
83.496094 97.445 52.2884
83.862305 97.177 56.0615
84.228516 97.040 60.4516
84.594727 97.069 65.1434
84.960938 97.273 69.7552
85.327148 97.635 73.9584
85.693359 98.124 77.5225
86.059570 98.709 80.2950
86.425781 99.352 82.1840
86.791992 100.016 83.1728
87.158203 100.662 83.3395
87.524414 101.263 82.8450
87.890625 101.805 81.8881
88.256836 102.291 80.6502
88.623047 102.731 79.2520
88.989258 103.137 77.7418
89.355469 103.518 76.1163
89.721680 103.877 74.3596
90.087891 104.210 72.4730
90.454102 104.516 70.4807
90.820312 104.797 68.4128
91.186523 105.054 66.2853
91.552734 105.290 64.0962
91.918945 105.504 61.8398
92.285156 105.690 59.5283
92.651367 105.846 57.2011
93.017578 105.975 54.9135
93.383789 106.082 52.7108
93.750000 106.178 50.6039
94.116211 106.271 48.5649
94.482422 106.364 46.5460
94.848633 106.454 44.5091
95.214844 106.536 42.4459
95.581055 106.607 40.3749
95.947266 106.667 38.3215
96.313477 106.721 36.2955
96.679688 106.770 34.2839
97.045898 106.817 32.2587
97.412109 106.860 30.1962
97.778320 106.893 28.0909
98.144531 106.914 25.9577
98.510742 106.920 23.8228
98.876953 106.913 21.7111
99.243164 106.896 19.6368
99.609375 106.870 17.6002
99.975586 106.839 15.5911
100.341797 106.803 13.5949
100.708008 106.759 11.6019
101.074219 106.706 9.6136
101.440430 106.641 7.6461
101.806641 106.564 5.7258
102.172852 106.475 3.8790
102.539062 106.380 2.1208
102.905273 106.282 0.4489
103.271484 106.185 -1.1514
103.637695 106.088 -2.6962
104.003906 105.994 -4.1935
104.370117 105.902 -5.6449
104.736328 105.815 -7.0557
105.102539 105.736 -8.4463
105.468750 105.665 -9.8513
105.834961 105.599 -11.3058
106.201172 105.531 -12.8259
106.567383 105.456 -14.3997
106.933594 105.369 -15.9940
107.299805 105.272 -17.5739
107.666016 105.167 -19.1204
108.032227 105.058 -20.6348
108.398438 104.946 -22.1288
108.764648 104.830 -23.6094
109.130859 104.706 -25.0695
109.497070 104.576 -26.4911
109.863281 104.440 -27.8586
110.229492 104.303 -29.1683
110.595703 104.166 -30.4305
110.961914 104.029 -31.6615
111.328125 103.893 -32.8731
111.694336 103.757 -34.0689
112.060547 103.620 -35.2474
112.426758 103.481 -36.4075
112.792969 103.341 -37.5510
113.159180 103.200 -38.6794
113.525391 103.056 -39.7899
113.891602 102.909 -40.8727
114.257812 102.758 -41.9157
114.624023 102.605 -42.9093
114.990234 102.451 -43.8496
115.356445 102.299 -44.7371
115.722656 102.150 -45.5739
116.088867 102.005 -46.3627
116.455078 101.865 -47.1080
116.821289 101.731 -47.8192
117.187500 101.605 -48.5078
117.553711 101.486 -49.1824
117.919922 101.373 -49.8430
118.286133 101.267 -50.4829
118.652344 101.170 -51.0992
119.018555 101.087 -51.7050
119.384766 101.020 -52.3337
119.750977 100.969 -53.0294
120.117188 100.932 -53.8295
120.483398 100.901 -54.7513
120.849609 100.873 -55.7908
121.215820 100.846 -56.9349
121.582031 100.820 -58.1771
121.948242 100.795 -59.5248
122.314453 100.769 -60.9965
122.680664 100.740 -62.6093
123.046875 100.702 -64.3683
123.413086 100.652 -66.2631
123.779297 100.585 -68.2704
124.145508 100.502 -70.3638
124.511719 100.403 -72.5226
124.877930 100.291 -74.7399
125.244141 100.170 -77.0255
125.610352 100.040 -79.4045
125.976562 99.899 -81.9076
126.342773 99.743 -84.5580
126.708984 99.566 -87.3592
127.075195 99.361 -90.2909
127.441406 99.126 -93.3165
127.807617 98.861 -96.3987
128.173828 98.573 -99.5172
128.540039 98.265 -102.6790
128.906250 97.944 -105.9180
129.272461 97.610 -109.2821
129.638672 97.263 -112.8190
130.004883 96.898 -116.5668
130.371094 96.512 -120.5536
130.737305 96.104 -124.8032
131.103516 95.673 -129.3409
131.469727 95.219 -134.1971
131.835938 94.745 -139.4077
132.202148 94.255 -145.0122
132.568359 93.754 -151.0518
132.934570 93.251 -157.5629
133.300781 92.759 -164.5693
133.666992 92.293 -172.0693
134.033203 91.877 179.9758
134.399414 91.534 171.6494
134.765625 91.292 163.0765
135.131836 91.174 154.4125
135.498047 91.193 145.8225
135.864258 91.349 137.4606
136.230469 91.631 129.4504
136.596680 92.019 121.8710
136.962891 92.491 114.7483
137.329102 93.024 108.0553
137.695312 93.595 101.7236
138.061523 94.183 95.6714
138.427734 94.762 89.8367
138.793945 95.311 84.2012
139.160156 95.815 78.7947
139.526367 96.268 73.6750
139.892578 96.674 68.8958
140.258789 97.040 64.4761
140.625000 97.380 60.3856
140.991211 97.699 56.5585
141.357422 98.000 52.9243
141.723633 98.276 49.4414
142.089844 98.524 46.1094
142.456055 98.744 42.9550
142.822266 98.938 40.0021
143.188477 99.115 37.2487
143.554688 99.282 34.6619
143.920898 99.440 32.1971
144.287109 99.586 29.8262
144.653320 99.717 27.5520
145.019531 99.831 25.4026
145.385742 99.934 23.4054
145.751953 100.032 21.5635
146.118164 100.132 19.8477
146.484375 100.237 18.2118
146.850586 100.344 16.6195
147.216797 100.448 15.0619
147.583008 100.546 13.5552
147.949219 100.642 12.1211
148.315430 100.738 10.7644
148.681641 100.841 9.4630
149.047852 100.951 8.1774
149.414062 101.066 6.8696
149.780273 101.180 5.5225
150.146484 101.289 4.1425
150.512695 101.390 2.7504
150.878906 101.484 1.3667
151.245117 101.573 0.0005
151.611328 101.657 -1.3522
151.977539 101.738 -2.7020
152.343750 101.813 -4.0569
152.709961 101.881 -5.4154
153.076172 101.941 -6.7644
153.442383 101.990 -8.0833
153.808594 102.031 -9.3505
154.174805 102.066 -10.5494
154.541016 102.099 -11.6730
154.907227 102.134 -12.7263
155.273438 102.176 -13.7271
155.639648 102.226 -14.7048
156.005859 102.287 -15.6991
156.372070 102.354 -16.7510
156.738281 102.423 -17.8918
157.104492 102.485 -19.1298
157.470703 102.532 -20.4426
157.836914 102.559 -21.7811
158.203125 102.565 -23.0851
158.569336 102.555 -24.3044
158.935547 102.536 -25.4176
159.301758 102.516 -26.4358
159.667969 102.496 -27.3892
160.034180 102.477 -28.3048
160.400391 102.454 -29.1873
160.766602 102.425 -30.0149
161.132812 102.390 -30.7524
161.499023 102.355 -31.3701
161.865234 102.326 -31.8599
162.231445 102.312 -32.2406
162.597656 102.318 -32.5535
162.963867 102.346 -32.8505
163.330078 102.396 -33.1835
163.696289 102.462 -33.5956
164.062500 102.540 -34.1147
164.428711 102.624 -34.7523
164.794922 102.706 -35.5037
165.161133 102.783 -36.3531
165.527344 102.852 -37.2792
165.893555 102.911 -38.2594
166.259766 102.958 -39.2711
166.625977 102.996 -40.2924
166.992188 103.024 -41.3054
167.358398 103.047 -42.3002
167.724609 103.066 -43.2781
168.090820 103.084 -44.2522
168.457031 103.101 -45.2406
168.823242 103.116 -46.2594
169.189453 103.125 -47.3174
169.555664 103.127 -48.4155
169.921875 103.119 -49.5499
170.288086 103.097 -50.7123
170.654297 103.059 -51.8867
171.020508 103.001 -53.0469
171.386719 102.924 -54.1559
171.752930 102.827 -55.1742
172.119141 102.716 -56.0708
172.485352 102.595 -56.8320
172.851562 102.470 -57.4609
173.217773 102.341 -57.9680
173.583984 102.211 -58.3577
173.950195 102.078 -58.6221
174.316406 101.944 -58.7433
174.682617 101.811 -58.7026
175.048828 101.686 -58.4882
175.415039 101.572 -58.0983
175.781250 101.476 -57.5387
176.147461 101.403 -56.8225
176.513672 101.359 -55.9730
176.879883 101.349 -55.0284
177.246094 101.378 -54.0426
177.612305 101.444 -53.0760
177.978516 101.546 -52.1840
178.344727 101.678 -51.4056
178.710938 101.832 -50.7609
179.077148 102.005 -50.2534
179.443359 102.191 -49.8774
179.809570 102.389 -49.6229
180.175781 102.597 -49.4805
180.541992 102.815 -49.4462
180.908203 103.045 -49.5237
181.274414 103.285 -49.7246
181.640625 103.537 -50.0656
182.006836 103.797 -50.5638
182.373047 104.064 -51.2340
182.739258 104.335 -52.0869
183.105469 104.608 -53.1324
183.471680 104.878 -54.3801
183.837891 105.144 -55.8405
184.204102 105.400 -57.5222
184.570312 105.641 -59.4290
184.936523 105.860 -61.5558
185.302734 106.052 -63.8878
185.668945 106.211 -66.3992
186.035156 106.331 -69.0542
186.401367 106.409 -71.8094
186.767578 106.442 -74.6156
187.133789 106.429 -77.4204
187.500000 106.372 -80.1719
187.866211 106.274 -82.8213
188.232422 106.138 -85.3267
188.598633 105.972 -87.6552
188.964844 105.781 -89.7852
189.331055 105.572 -91.7069
189.697266 105.351 -93.4219
190.063477 105.125 -94.9417
190.429688 104.897 -96.2839
190.795898 104.671 -97.4692
191.162109 104.448 -98.5175
191.528320 104.229 -99.4459
191.894531 104.016 -100.2703
192.260742 103.809 -101.0039
192.626953 103.608 -101.6598
192.993164 103.412 -102.2502
193.359375 103.223 -102.7866
193.725586 103.039 -103.2784
194.091797 102.861 -103.7343
194.458008 102.687 -104.1631
194.824219 102.518 -104.5759
195.190430 102.353 -104.9860
195.556641 102.189 -105.4056
195.922852 102.024 -105.8446
196.289062 101.855 -106.3064
196.655273 101.679 -106.7888
197.021484 101.491 -107.2839
197.387695 101.290 -107.7792
197.753906 101.071 -108.2568
198.120117 100.831 -108.6921
198.486328 100.568 -109.0509
198.852539 100.280 -109.2883
199.218750 99.967 -109.3522
199.584961 99.633 -109.1873
199.951172 99.283 -108.7430
200.317383 98.928 -107.9822
200.683594 98.575 -106.8865
201.049805 98.238 -105.4611
201.416016 97.925 -103.7332
201.782227 97.642 -101.7458
202.148438 97.394 -99.5477
202.514648 97.183 -97.1829
202.880859 97.006 -94.6831
203.247070 96.864 -92.0663
203.613281 96.755 -89.3370
203.979492 96.680 -86.4907
204.345703 96.641 -83.5187
204.711914 96.644 -80.4147
205.078125 96.697 -77.1862
205.444336 96.809 -73.8641
205.810547 96.990 -70.5122
206.176758 97.248 -67.2275
206.542969 97.583 -64.1335
206.909180 97.991 -61.3622
207.275391 98.459 -59.0310
207.641602 98.967 -57.2222
208.007812 99.496 -55.9681
208.374023 100.023 -55.2518
208.740234 100.531 -55.0149
209.106445 101.007 -55.1743
209.472656 101.445 -55.6372
209.838867 101.841 -56.3142
210.205078 102.198 -57.1271
210.571289 102.518 -58.0129
210.937500 102.807 -58.9263
211.303711 103.072 -59.8375
211.669922 103.317 -60.7327
212.036133 103.547 -61.6088
212.402344 103.766 -62.4712
212.768555 103.976 -63.3289
213.134766 104.178 -64.1919
213.500977 104.374 -65.0695
213.867188 104.562 -65.9691
214.233398 104.743 -66.8959
214.599609 104.914 -67.8521
214.965820 105.074 -68.8352
215.332031 105.223 -69.8370
215.698242 105.357 -70.8433
216.064453 105.476 -71.8345
216.430664 105.582 -72.7882
216.796875 105.675 -73.6836
217.163086 105.759 -74.5046
217.529297 105.838 -75.2437
217.895508 105.915 -75.9021
218.261719 105.993 -76.4880
218.627930 106.074 -77.0135
218.994141 106.159 -77.4911
219.360352 106.248 -77.9315
219.726562 106.342 -78.3431
220.092773 106.441 -78.7311
220.458984 106.543 -79.0966
220.825195 106.649 -79.4359
221.191406 106.760 -79.7426
221.557617 106.877 -80.0101
221.923828 107.003 -80.2400
222.290039 107.142 -80.4446
222.656250 107.296 -80.6476
223.022461 107.466 -80.8778
223.388672 107.650 -81.1597
223.754883 107.846 -81.5078
224.121094 108.052 -81.9283
224.487305 108.268 -82.4270
224.853516 108.495 -83.0175
225.219727 108.733 -83.7271
225.585938 108.978 -84.5918
225.952148 109.225 -85.6454
226.318359 109.466 -86.9048
226.684570 109.689 -88.3605
227.050781 109.885 -89.9731
227.416992 110.047 -91.6779
227.783203 110.172 -93.3934
228.149414 110.264 -95.0339
228.515625 110.328 -96.5223
228.881836 110.376 -97.8047
229.248047 110.425 -98.8633
229.614258 110.488 -99.7236
229.980469 110.577 -100.4513
230.346680 110.699 -101.1372
230.712891 110.854 -101.8760
231.079102 111.036 -102.7476
231.445312 111.237 -103.8076
231.811523 111.447 -105.0895
232.177734 111.657 -106.6101
232.543945 111.859 -108.3743
232.910156 112.041 -110.3730
233.276367 112.195 -112.5797
233.642578 112.311 -114.9471
234.008789 112.382 -117.4087
234.375000 112.405 -119.8864
234.741211 112.381 -122.2996
235.107422 112.314 -124.5759
235.473633 112.210 -126.6567
235.839844 112.076 -128.4989
236.206055 111.921 -130.0723
236.572266 111.753 -131.3541
236.938477 111.579 -132.3263
237.304688 111.410 -132.9750
237.670898 111.256 -133.2954
238.037109 111.128 -133.2983
238.403320 111.040 -133.0186
238.769531 111.005 -132.5189
239.135742 111.032 -131.8915
239.501953 111.126 -131.2511
239.868164 111.288 -130.7238
240.234375 111.512 -130.4323
240.600586 111.784 -130.4801
240.966797 112.091 -130.9402
241.333008 112.412 -131.8474
241.699219 112.732 -133.1992
242.065430 113.033 -134.9608
242.431641 113.303 -137.0745
242.797852 113.533 -139.4685
243.164062 113.719 -142.0675
243.530273 113.857 -144.7996
243.896484 113.951 -147.6006
244.262695 114.001 -150.4182
244.628906 114.011 -153.2115
244.995117 113.985 -155.9509
245.361328 113.926 -158.6157
245.727539 113.838 -161.1910
246.093750 113.721 -163.6644
246.459961 113.578 -166.0210
246.826172 113.409 -168.2401
247.192383 113.215 -170.2937
247.558594 112.999 -172.1482
247.924805 112.766 -173.7677
248.291016 112.523 -175.1223
248.657227 112.280 -176.1946
249.023438 112.046 -176.9874
249.389648 111.831 -177.5271
249.755859 111.644 -177.8615
250.122070 111.490 -178.0530
250.488281 111.370 -178.1677
250.854492 111.283 -178.2651
251.220703 111.224 -178.3894
251.586914 111.188 -178.5696
251.953125 111.171 -178.8214
252.319336 111.169 -179.1523
252.685547 111.177 -179.5645
253.051758 111.194 179.9457
253.417969 111.215 179.3871
253.784180 111.240 178.7734
254.150391 111.268 178.1187
254.516602 111.301 177.4320
254.882812 111.340 176.7137
255.249023 111.389 175.9542
255.615234 111.447 175.1384
255.981445 111.514 174.2515
256.347656 111.590 173.2806
256.713867 111.676 172.2141
257.080078 111.770 171.0367
257.446289 111.874 169.7246
257.812500 111.986 168.2460
258.178711 112.103 166.5640
258.544922 112.222 164.6438
258.911133 112.334 162.4568
259.277344 112.431 159.9838
259.643555 112.505 157.2155
260.009766 112.546 154.1545
260.375977 112.542 150.8174
260.742188 112.481 147.2390
261.108398 112.352 143.4750
261.474609 112.144 139.6036
261.840820 111.851 135.7239
262.207031 111.467 131.9510
262.573242 110.993 128.4110
262.939453 110.433 125.2325
263.305664 109.797 122.5380
263.671875 109.099 120.4343
264.038086 108.357 119.0042
264.404297 107.590 118.2992
264.770508 106.822 118.3374
265.136719 106.071 119.1055
265.502930 105.358 120.5636
265.869141 104.699 122.6520
266.235352 104.107 125.2946
266.601562 103.595 128.4042
266.967773 103.173 131.8870
267.333984 102.846 135.6462
267.700195 102.621 139.5798
268.066406 102.502 143.5734
268.432617 102.489 147.4974
268.798828 102.578 151.2170
269.165039 102.759 154.6102
269.531250 103.016 157.5828
269.897461 103.336 160.0690
270.263672 103.702 162.0248
270.629883 104.097 163.4238
270.996094 104.506 164.2603
271.362305 104.911 164.5547
271.728516 105.298 164.3546
272.094727 105.655 163.7249
272.460938 105.977 162.7339
272.827148 106.260 161.4408
273.193359 106.499 159.8936
273.559570 106.693 158.1328
273.925781 106.835 156.2035
274.291992 106.923 154.1624
274.658203 106.953 152.0809
275.024414 106.925 150.0419
275.390625 106.842 148.1305
275.756836 106.711 146.4259
276.123047 106.544 144.9917
276.489258 106.352 143.8678
276.855469 106.152 143.0630
277.221680 105.957 142.5509
277.587891 105.778 142.2725
277.954102 105.620 142.1478
278.320312 105.484 142.0978
278.686523 105.362 142.0643
279.052734 105.248 142.0243
279.418945 105.134 141.9884
279.785156 105.015 141.9911
280.151367 104.891 142.0740
280.517578 104.765 142.2743
280.883789 104.642 142.6160
281.250000 104.530 143.1055
281.616211 104.436 143.7297
281.982422 104.367 144.4562
282.348633 104.328 145.2346
282.714844 104.319 146.0039
283.081055 104.339 146.7020
283.447266 104.382 147.2756
283.813477 104.441 147.6884
284.179688 104.506 147.9235
284.545898 104.568 147.9840
284.912109 104.618 147.8910
285.278320 104.648 147.6818
285.644531 104.653 147.4081
286.010742 104.629 147.1343
286.376953 104.574 146.9341
286.743164 104.493 146.8846
287.109375 104.393 147.0596
287.475586 104.283 147.5171
287.841797 104.180 148.2876
288.208008 104.099 149.3641
288.574219 104.054 150.7008
288.940430 104.057 152.2225
289.306641 104.112 153.8419
289.672852 104.223 155.4739
290.039062 104.386 157.0425
290.405273 104.600 158.4797
290.771484 104.860 159.7217
291.137695 105.159 160.7114
291.503906 105.488 161.4050
291.870117 105.838 161.7776
292.236328 106.198 161.8234
292.602539 106.561 161.5499
292.968750 106.918 160.9720
293.334961 107.265 160.1062
293.701172 107.597 158.9714
294.067383 107.907 157.5896
294.433594 108.192 155.9862
294.799805 108.448 154.1885
295.166016 108.673 152.2239
295.532227 108.863 150.1179
295.898438 109.017 147.8970
296.264648 109.130 145.5912
296.630859 109.200 143.2383
296.997070 109.225 140.8862
297.363281 109.204 138.5919
297.729492 109.138 136.4177
298.095703 109.030 134.4271
298.461914 108.888 132.6790
298.828125 108.721 131.2225
299.194336 108.539 130.0909
299.560547 108.357 129.2947
299.926758 108.189 128.8142
