* Measurement data measured by REW V5.20.8
* Source: ASIO hdspfire, Analog 1 (1)
* Format: 4M Log Swept Sine, 1 sweep at -12.0 dBFS with no timing reference
* Dated: 13 juin 2022 14:02:01
* REW Settings:
*  C-weighting compensation: Off
*  Target level: 75.0 dB
* Note: ; 
* Measurement: on_0x1400_2_2 juin 13
* Smoothing: None
* Frequency Step: 0.36621094 Hz
* Start Frequency: 0.36621094 Hz
*
* Freq(Hz) SPL(dB) Phase(degrees)
0.366211 6.317 75.0085
0.732422 11.785 62.9623
1.098633 14.374 49.5749
1.464844 15.386 33.5468
1.831055 14.590 11.9850
2.197266 10.970 -25.4219
2.563477 9.103 -124.1708
2.929688 16.824 172.9238
3.295898 21.146 137.9291
3.662109 22.907 105.9210
4.028320 22.581 71.9873
4.394531 20.058 33.8054
4.760742 13.469 -6.4462
5.126953 11.708 101.7169
5.493164 25.715 70.4982
5.859375 33.184 37.0393
6.225586 38.284 7.7014
6.591797 41.766 -18.0341
6.958008 43.920 -40.1326
7.324219 44.900 -57.1998
7.690430 45.019 -65.8401
8.056641 45.464 -62.7170
8.422852 47.781 -56.7136
8.789062 50.954 -59.9827
9.155273 53.581 -70.4274
9.521484 55.334 -83.0704
9.887695 56.296 -94.1947
10.253906 56.799 -100.6317
10.620117 57.589 -101.1425
10.986328 59.357 -100.2312
11.352539 61.721 -103.9404
11.718750 63.894 -112.6046
12.084961 65.491 -123.6439
12.451172 66.426 -134.4092
12.817383 66.785 -142.3168
13.183594 66.922 -144.8314
13.549805 67.600 -141.8077
13.916016 69.334 -138.7186
14.282227 71.605 -140.8534
14.648438 73.708 -148.0315
15.014648 75.343 -158.1022
15.380859 76.449 -169.2592
15.747070 77.041 179.8683
16.113281 77.178 170.5283
16.479492 76.992 164.0307
16.845703 76.775 161.3986
17.211914 76.966 161.9697
17.578125 77.804 162.4955
17.944336 79.015 159.8791
18.310547 80.159 153.7106
18.676758 80.961 145.2168
19.042969 81.312 135.9102
19.409180 81.198 127.2520
19.775391 80.689 120.6932
20.141602 79.977 117.5289
20.507812 79.393 118.1008
20.874023 79.233 120.8334
21.240234 79.461 123.3654
21.606445 79.814 125.0127
21.972656 80.160 126.7776
22.338867 80.606 129.5802
22.705078 81.334 132.9368
23.071289 82.355 135.4075
23.437500 83.499 136.2943
23.803711 84.606 136.1309
24.169922 85.688 135.7770
24.536133 86.858 135.4752
24.902344 88.202 134.5916
25.268555 89.683 132.2284
25.634766 91.174 127.9973
26.000977 92.559 122.1306
26.367188 93.778 115.1385
26.733398 94.818 107.5131
27.099609 95.695 99.6134
27.465820 96.428 91.6728
27.832031 97.038 83.8600
28.198242 97.543 76.3371
28.564453 97.972 69.2684
28.930664 98.370 62.7591
29.296875 98.791 56.7480
29.663086 99.280 50.9441
30.029297 99.846 44.9109
30.395508 100.450 38.2820
30.761719 101.032 30.9390
31.127930 101.534 23.0319
31.494141 101.925 14.8795
31.860352 102.207 6.8389
32.226562 102.407 -0.8058
32.592773 102.562 -7.9222
32.958984 102.710 -14.5524
33.325195 102.875 -20.8574
33.691406 103.057 -27.0018
34.057617 103.239 -33.0533
34.423828 103.406 -38.9619
34.790039 103.556 -44.6171
35.156250 103.705 -49.9380
35.522461 103.870 -54.9377
35.888672 104.066 -59.7270
36.254883 104.292 -64.4516
36.621094 104.533 -69.2101
36.987305 104.768 -74.0071
37.353516 104.985 -78.7668
37.719727 105.186 -83.3900
38.085938 105.381 -87.8163
38.452148 105.587 -92.0650
38.818359 105.813 -96.2297
39.184570 106.059 -100.4314
39.550781 106.312 -104.7570
39.916992 106.554 -109.2221
40.283203 106.773 -113.7742
40.649414 106.963 -118.3284
41.015625 107.128 -122.8098
41.381836 107.276 -127.1807
41.748047 107.415 -131.4407
42.114258 107.548 -135.6068
42.480469 107.677 -139.6890
42.846680 107.805 -143.6844
43.212891 107.939 -147.5933
43.579102 108.084 -151.4407
43.945312 108.241 -155.2847
44.311523 108.407 -159.1941
44.677734 108.575 -163.2144
45.043945 108.735 -167.3428
45.410156 108.882 -171.5372
45.776367 109.015 -175.7500
46.142578 109.143 -179.9655
46.508789 109.271 175.7839
46.875000 109.399 171.4352
47.241211 109.520 166.9338
47.607422 109.624 162.2651
47.973633 109.701 157.4575
48.339844 109.747 152.5577
48.706055 109.765 147.5969
49.072266 109.757 142.5697
49.438477 109.723 137.4410
49.804688 109.655 132.1733
50.170898 109.542 126.7595
50.537109 109.371 121.2390
50.903320 109.135 115.6912
51.269531 108.831 110.2087
51.635742 108.467 104.8660
52.001953 108.052 99.6917
52.368164 107.595 94.6633
52.734375 107.097 89.7223
53.100586 106.551 84.8091
53.466797 105.943 79.9020
53.833008 105.254 75.0435
54.199219 104.470 70.3440
54.565430 103.584 65.9663
54.931641 102.600 62.0900
55.297852 101.534 58.8665
55.664062 100.412 56.3721
56.030273 99.255 54.5825
56.396484 98.077 53.3986
56.762695 96.870 52.7158
57.128906 95.613 52.5026
57.495117 94.279 52.8252
57.861328 92.840 53.8208
58.227539 91.254 55.6853
58.593750 89.441 58.8210
58.959961 87.264 64.3574
59.326172 84.604 75.4932
59.692383 82.018 99.4045
60.058594 82.150 134.9392
60.424805 85.040 158.3979
60.791016 87.984 168.1699
61.157227 90.363 171.6400
61.523438 92.267 172.2944
61.889648 93.830 171.5238
62.255859 95.141 169.9121
62.622070 96.256 167.7417
62.988281 97.207 165.1970
63.354492 98.018 162.4355
63.720703 98.711 159.5955
64.086914 99.306 156.7816
64.453125 99.823 154.0583
64.819336 100.282 151.4514
65.185547 100.699 148.9620
65.551758 101.086 146.5759
65.917969 101.454 144.2666
66.284180 101.810 141.9929
66.650391 102.158 139.7024
67.016602 102.498 137.3433
67.382812 102.826 134.8828
67.749023 103.135 132.3190
68.115234 103.423 129.6760
68.481445 103.688 126.9874
68.847656 103.933 124.2766
69.213867 104.164 121.5447
69.580078 104.381 118.7739
69.946289 104.584 115.9412
70.312500 104.769 113.0352
70.678711 104.931 110.0653
71.044922 105.067 107.0609
71.411133 105.176 104.0618
71.777344 105.261 101.1045
72.143555 105.327 98.2101
72.509766 105.379 95.3765
72.875977 105.421 92.5808
73.242188 105.453 89.7917
73.608398 105.473 86.9866
73.974609 105.475 84.1667
74.340820 105.456 81.3601
74.707031 105.416 78.6083
75.073242 105.360 75.9443
75.439453 105.293 73.3743
75.805664 105.222 70.8740
76.171875 105.146 68.4067
76.538086 105.060 65.9492
76.904297 104.960 63.5092
77.270508 104.845 61.1169
77.636719 104.719 58.8018
78.002930 104.587 56.5642
78.369141 104.454 54.3723
78.735352 104.318 52.1842
79.101562 104.170 49.9841
79.467773 104.002 47.8041
79.833984 103.810 45.7148
80.200195 103.601 43.7889
80.566406 103.385 42.0583
80.932617 103.178 40.4935
81.298828 102.986 39.0178
81.665039 102.809 37.5471
82.031250 102.637 36.0254
82.397461 102.463 34.4337
82.763672 102.279 32.7764
83.129883 102.079 31.0632
83.496094 101.856 29.3079
83.862305 101.604 27.5376
84.228516 101.314 25.8031
84.594727 100.985 24.1740
84.960938 100.619 22.7201
85.327148 100.219 21.4967
85.693359 99.789 20.5472
86.059570 99.332 19.9236
86.425781 98.851 19.7047
86.791992 98.362 19.9821
87.158203 97.885 20.8042
87.524414 97.450 22.1163
87.890625 97.072 23.7584
88.256836 96.745 25.5571
88.623047 96.447 27.4529
88.989258 96.160 29.5497
89.355469 95.887 32.0420
89.721680 95.660 35.0675
90.087891 95.523 38.5875
90.454102 95.507 42.3853
90.820312 95.621 46.1794
91.186523 95.856 49.7361
91.552734 96.192 52.8907
91.918945 96.610 55.5177
92.285156 97.082 57.5298
92.651367 97.582 58.9131
93.017578 98.083 59.7373
93.383789 98.574 60.1155
93.750000 99.053 60.1385
94.116211 99.523 59.8378
94.482422 99.982 59.2019
94.848633 100.420 58.2295
95.214844 100.824 56.9705
95.581055 101.189 55.5248
95.947266 101.516 54.0012
96.313477 101.819 52.4672
96.679688 102.109 50.9230
97.045898 102.394 49.3156
97.412109 102.675 47.5825
97.778320 102.942 45.6954
98.144531 103.187 43.6740
98.510742 103.407 41.5699
98.876953 103.602 39.4359
99.243164 103.779 37.3014
99.609375 103.943 35.1647
99.975586 104.097 33.0031
100.341797 104.241 30.7903
100.708008 104.371 28.5121
101.074219 104.485 26.1721
101.440430 104.577 23.7900
101.806641 104.645 21.3944
102.172852 104.689 19.0170
102.539062 104.711 16.6876
102.905273 104.713 14.4323
103.271484 104.697 12.2729
103.637695 104.668 10.2268
104.003906 104.631 8.3032
104.370117 104.592 6.4983
104.736328 104.558 4.7902
105.102539 104.532 3.1410
105.468750 104.515 1.5059
105.834961 104.502 -0.1521
106.201172 104.489 -1.8496
106.567383 104.471 -3.5802
106.933594 104.444 -5.3217
107.299805 104.409 -7.0507
107.666016 104.367 -8.7538
108.032227 104.321 -10.4303
108.398438 104.271 -12.0868
108.764648 104.217 -13.7269
109.130859 104.156 -15.3444
109.497070 104.088 -16.9240
109.863281 104.014 -18.4482
110.229492 103.937 -19.9067
110.595703 103.860 -21.3011
110.961914 103.784 -22.6438
111.328125 103.712 -23.9509
111.694336 103.642 -25.2343
112.060547 103.574 -26.4963
112.426758 103.507 -27.7322
112.792969 103.441 -28.9357
113.159180 103.379 -30.1064
113.525391 103.322 -31.2533
113.891602 103.271 -32.3910
114.257812 103.224 -33.5336
114.624023 103.179 -34.6870
114.990234 103.133 -35.8461
115.356445 103.087 -36.9979
115.722656 103.040 -38.1295
116.088867 102.995 -39.2354
116.455078 102.954 -40.3212
116.821289 102.917 -41.4014
117.187500 102.885 -42.4905
117.553711 102.855 -43.5941
117.919922 102.823 -44.7031
118.286133 102.791 -45.7971
118.652344 102.759 -46.8553
119.018555 102.732 -47.8690
119.384766 102.715 -48.8508
119.750977 102.712 -49.8330
120.117188 102.722 -50.8552
120.483398 102.741 -51.9489
120.849609 102.766 -53.1257
121.215820 102.791 -54.3767
121.582031 102.814 -55.6798
121.948242 102.835 -57.0117
122.314453 102.856 -58.3573
122.680664 102.880 -59.7153
123.046875 102.908 -61.0968
123.413086 102.943 -62.5199
123.779297 102.981 -64.0013
124.145508 103.022 -65.5487
124.511719 103.063 -67.1580
124.877930 103.104 -68.8163
125.244141 103.145 -70.5134
125.610352 103.189 -72.2529
125.976562 103.240 -74.0575
126.342773 103.296 -75.9619
126.708984 103.353 -77.9973
127.075195 103.404 -80.1731
127.441406 103.442 -82.4697
127.807617 103.462 -84.8442
128.173828 103.465 -87.2490
128.540039 103.456 -89.6494
128.906250 103.439 -92.0363
129.272461 103.420 -94.4237
129.638672 103.399 -96.8368
130.004883 103.377 -99.2970
130.371094 103.351 -101.8129
130.737305 103.318 -104.3822
131.103516 103.279 -107.0005
131.469727 103.234 -109.6680
131.835938 103.181 -112.3914
132.202148 103.120 -115.1760
132.568359 103.046 -118.0175
132.934570 102.959 -120.8956
133.300781 102.856 -123.7809
133.666992 102.740 -126.6443
134.033203 102.617 -129.4705
134.399414 102.489 -132.2627
134.765625 102.361 -135.0371
135.131836 102.233 -137.8102
135.498047 102.104 -140.5876
135.864258 101.975 -143.3656
136.230469 101.848 -146.1404
136.596680 101.728 -148.9235
136.962891 101.616 -151.7476
137.329102 101.512 -154.6583
137.695312 101.411 -157.6938
138.061523 101.305 -160.8661
138.427734 101.185 -164.1533
138.793945 101.046 -167.5068
139.160156 100.887 -170.8685
139.526367 100.712 -174.1858
139.892578 100.528 -177.4230
140.258789 100.340 179.4374
140.625000 100.157 176.3955
140.991211 99.985 173.4357
141.357422 99.829 170.5272
141.723633 99.693 167.6282
142.089844 99.576 164.6954
142.456055 99.475 161.6980
142.822266 99.382 158.6284
143.188477 99.297 155.5009
143.554688 99.219 152.3384
143.920898 99.149 149.1553
144.287109 99.092 145.9463
144.653320 99.048 142.6895
145.019531 99.016 139.3617
145.385742 98.990 135.9543
145.751953 98.968 132.4797
146.118164 98.947 128.9636
146.484375 98.928 125.4299
146.850586 98.913 121.8893
147.216797 98.903 118.3386
147.583008 98.898 114.7698
147.949219 98.896 111.1805
148.315430 98.897 107.5776
148.681641 98.899 103.9716
149.047852 98.904 100.3667
149.414062 98.912 96.7555
149.780273 98.922 93.1234
150.146484 98.931 89.4594
150.512695 98.936 85.7662
150.878906 98.932 82.0629
151.245117 98.918 78.3755
151.611328 98.896 74.7255
151.977539 98.866 71.1208
152.343750 98.830 67.5558
152.709961 98.787 64.0189
153.076172 98.734 60.5043
153.442383 98.668 57.0179
153.808594 98.585 53.5779
154.174805 98.483 50.2080
154.541016 98.362 46.9321
154.907227 98.223 43.7698
155.273438 98.064 40.7371
155.639648 97.888 37.8492
156.005859 97.694 35.1239
156.372070 97.482 32.5828
156.738281 97.255 30.2496
157.104492 97.014 28.1479
157.470703 96.763 26.2977
157.836914 96.507 24.7135
158.203125 96.248 23.4056
158.569336 95.992 22.3845
158.935547 95.742 21.6650
159.301758 95.505 21.2656
159.667969 95.290 21.1971
160.034180 95.109 21.4469
160.400391 94.973 21.9635
160.766602 94.892 22.6635
161.132812 94.866 23.4543
161.499023 94.892 24.2643
161.865234 94.966 25.0504
162.231445 95.087 25.7809
162.597656 95.256 26.4069
162.963867 95.471 26.8508
163.330078 95.724 27.0254
163.696289 96.002 26.8693
164.062500 96.287 26.3708
164.428711 96.565 25.5649
164.794922 96.826 24.5101
165.161133 97.066 23.2640
165.527344 97.282 21.8735
165.893555 97.474 20.3783
166.259766 97.641 18.8175
166.625977 97.784 17.2313
166.992188 97.908 15.6506
167.358398 98.016 14.0858
167.724609 98.113 12.5229
168.090820 98.198 10.9376
168.457031 98.266 9.3156
168.823242 98.313 7.6692
169.189453 98.333 6.0385
169.555664 98.325 4.4761
169.921875 98.293 3.0287
170.288086 98.243 1.7246
170.654297 98.178 0.5756
171.020508 98.102 -0.4143
171.386719 98.018 -1.2377
171.752930 97.928 -1.8828
172.119141 97.836 -2.3385
172.485352 97.747 -2.5995
172.851562 97.665 -2.6685
173.217773 97.595 -2.5533
173.583984 97.541 -2.2668
173.950195 97.506 -1.8282
174.316406 97.492 -1.2629
174.682617 97.500 -0.5936
175.048828 97.529 0.1735
175.415039 97.578 1.0564
175.781250 97.652 2.0840
176.147461 97.763 3.2649
176.513672 97.923 4.5568
176.879883 98.142 5.8605
177.246094 98.422 7.0509
177.612305 98.753 8.0211
177.978516 99.123 8.7114
178.344727 99.520 9.1033
178.710938 99.934 9.1979
179.077148 100.360 8.9967
179.443359 100.790 8.5002
179.809570 101.217 7.7181
180.175781 101.634 6.6766
180.541992 102.035 5.4154
180.908203 102.420 3.9758
181.274414 102.789 2.3887
181.640625 103.143 0.6691
182.006836 103.483 -1.1777
182.373047 103.808 -3.1471
182.739258 104.116 -5.2277
183.105469 104.408 -7.4017
183.471680 104.683 -9.6500
183.837891 104.945 -11.9609
184.204102 105.195 -14.3358
184.570312 105.438 -16.7899
184.936523 105.672 -19.3481
185.302734 105.896 -22.0391
185.668945 106.106 -24.8866
186.035156 106.295 -27.9039
186.401367 106.456 -31.0872
186.767578 106.581 -34.4136
187.133789 106.664 -37.8419
187.500000 106.700 -41.3176
187.866211 106.689 -44.7802
188.232422 106.631 -48.1707
188.598633 106.531 -51.4399
188.964844 106.393 -54.5503
189.331055 106.222 -57.4755
189.697266 106.024 -60.1959
190.063477 105.803 -62.6953
190.429688 105.563 -64.9591
190.795898 105.312 -66.9767
191.162109 105.054 -68.7455
191.528320 104.797 -70.2723
191.894531 104.545 -71.5728
192.260742 104.302 -72.6656
192.626953 104.071 -73.5692
192.993164 103.857 -74.3007
193.359375 103.662 -74.8795
193.725586 103.491 -75.3339
194.091797 103.348 -75.7025
194.458008 103.233 -76.0328
194.824219 103.147 -76.3735
195.190430 103.085 -76.7688
195.556641 103.045 -77.2557
195.922852 103.020 -77.8635
196.289062 103.006 -78.6146
196.655273 102.995 -79.5227
197.021484 102.980 -80.5886
197.387695 102.954 -81.7988
197.753906 102.912 -83.1267
198.120117 102.848 -84.5380
198.486328 102.760 -85.9973
198.852539 102.647 -87.4728
199.218750 102.508 -88.9353
199.584961 102.342 -90.3531
199.951172 102.147 -91.6858
200.317383 101.924 -92.8807
200.683594 101.676 -93.8784
201.049805 101.412 -94.6237
201.416016 101.142 -95.0809
201.782227 100.878 -95.2454
202.148438 100.632 -95.1453
202.514648 100.415 -94.8317
202.880859 100.231 -94.3649
203.247070 100.084 -93.8043
203.613281 99.974 -93.2092
203.979492 99.902 -92.6427
204.345703 99.864 -92.1725
204.711914 99.853 -91.8615
205.078125 99.860 -91.7527
205.444336 99.872 -91.8584
205.810547 99.878 -92.1591
206.176758 99.869 -92.6115
206.542969 99.840 -93.1614
206.909180 99.789 -93.7535
207.275391 99.720 -94.3385
207.641602 99.635 -94.8767
208.007812 99.540 -95.3442
208.374023 99.442 -95.7377
208.740234 99.348 -96.0786
209.106445 99.261 -96.4110
209.472656 99.181 -96.7888
209.838867 99.101 -97.2600
210.205078 99.014 -97.8486
210.571289 98.908 -98.5474
210.937500 98.775 -99.3196
211.303711 98.611 -100.1106
211.669922 98.412 -100.8613
212.036133 98.181 -101.5200
212.402344 97.918 -102.0471
212.768555 97.627 -102.4126
213.134766 97.307 -102.5874
213.500977 96.959 -102.5330
213.867188 96.583 -102.1943
214.233398 96.184 -101.4991
214.599609 95.769 -100.3667
214.965820 95.352 -98.7234
215.332031 94.955 -96.5259
215.698242 94.600 -93.7852
216.064453 94.313 -90.5804
216.430664 94.109 -87.0518
216.796875 93.995 -83.3701
217.163086 93.970 -79.6987
217.529297 94.019 -76.1652
217.895508 94.129 -72.8516
218.261719 94.283 -69.7942
218.627930 94.463 -66.9856
218.994141 94.657 -64.3778
219.360352 94.858 -61.8951
219.726562 95.066 -59.4580
220.092773 95.288 -57.0094
220.458984 95.534 -54.5311
220.825195 95.811 -52.0406
221.191406 96.125 -49.5750
221.557617 96.480 -47.1752
221.923828 96.876 -44.8824
222.290039 97.315 -42.7428
222.656250 97.795 -40.8080
223.022461 98.314 -39.1296
223.388672 98.865 -37.7506
223.754883 99.441 -36.7004
224.121094 100.038 -36.0010
224.487305 100.648 -35.6718
224.853516 101.265 -35.7311
225.219727 101.881 -36.1931
225.585938 102.487 -37.0621
225.952148 103.074 -38.3323
226.318359 103.633 -39.9888
226.684570 104.154 -42.0082
227.050781 104.629 -44.3562
227.416992 105.046 -46.9810
227.783203 105.398 -49.8082
228.149414 105.678 -52.7406
228.515625 105.884 -55.6635
228.881836 106.020 -58.4568
229.248047 106.096 -61.0118
229.614258 106.128 -63.2480
229.980469 106.134 -65.1278
230.346680 106.133 -66.6631
230.712891 106.140 -67.9097
231.079102 106.164 -68.9502
231.445312 106.208 -69.8710
231.811523 106.270 -70.7441
232.177734 106.343 -71.6174
232.543945 106.423 -72.5161
232.910156 106.502 -73.4470
233.276367 106.576 -74.4033
233.642578 106.640 -75.3651
234.008789 106.690 -76.3009
234.375000 106.726 -77.1714
234.741211 106.748 -77.9359
235.107422 106.762 -78.5613
235.473633 106.772 -79.0264
235.839844 106.783 -79.3215
236.206055 106.801 -79.4440
236.572266 106.830 -79.3929
236.938477 106.876 -79.1707
237.304688 106.945 -78.7853
237.670898 107.042 -78.2559
238.037109 107.173 -77.6107
238.403320 107.342 -76.8823
238.769531 107.551 -76.1031
239.135742 107.807 -75.3094
239.501953 108.112 -74.5503
239.868164 108.472 -73.8962
240.234375 108.885 -73.4382
240.600586 109.349 -73.2737
240.966797 109.852 -73.4880
241.333008 110.380 -74.1389
241.699219 110.918 -75.2510
242.065430 111.450 -76.8168
242.431641 111.964 -78.8041
242.797852 112.448 -81.1626
243.164062 112.897 -83.8320
243.530273 113.305 -86.7487
243.896484 113.671 -89.8529
244.262695 113.998 -93.0948
244.628906 114.287 -96.4382
244.995117 114.541 -99.8613
245.361328 114.763 -103.3556
245.727539 114.954 -106.9202
246.093750 115.112 -110.5574
246.459961 115.236 -114.2657
246.826172 115.321 -118.0358
247.192383 115.364 -121.8461
247.558594 115.359 -125.6616
247.924805 115.304 -129.4338
248.291016 115.197 -133.1033
248.657227 115.040 -136.6035
249.023438 114.836 -139.8680
249.389648 114.594 -142.8378
249.755859 114.322 -145.4686
250.122070 114.033 -147.7374
250.488281 113.738 -149.6448
250.854492 113.448 -151.2124
251.220703 113.172 -152.4777
251.586914 112.916 -153.4850
251.953125 112.684 -154.2794
252.319336 112.479 -154.9041
252.685547 112.302 -155.3993
253.051758 112.155 -155.8035
253.417969 112.037 -156.1531
253.784180 111.946 -156.4801
254.150391 111.881 -156.8094
254.516602 111.839 -157.1589
254.882812 111.818 -157.5402
255.249023 111.818 -157.9637
255.615234 111.838 -158.4410
255.981445 111.875 -158.9847
256.347656 111.928 -159.6066
256.713867 111.994 -160.3132
257.080078 112.070 -161.1055
257.446289 112.156 -161.9796
257.812500 112.250 -162.9316
258.178711 112.352 -163.9614
258.544922 112.462 -165.0746
258.911133 112.581 -166.2822
259.277344 112.707 -167.5999
259.643555 112.840 -169.0465
260.009766 112.979 -170.6438
260.375977 113.121 -172.4161
260.742188 113.262 -174.3879
261.108398 113.394 -176.5793
261.474609 113.511 -178.9991
261.840820 113.604 178.3594
262.207031 113.664 175.5214
262.573242 113.686 172.5291
262.939453 113.664 169.4376
263.305664 113.596 166.3087
263.671875 113.482 163.2045
264.038086 113.328 160.1807
264.404297 113.137 157.2826
264.770508 112.916 154.5417
265.136719 112.673 151.9735
265.502930 112.415 149.5781
265.869141 112.148 147.3414
266.235352 111.876 145.2390
266.601562 111.601 143.2410
266.967773 111.324 141.3163
267.333984 111.043 139.4388
267.700195 110.754 137.5912
268.066406 110.455 135.7661
268.432617 110.140 133.9663
268.798828 109.805 132.2026
269.165039 109.448 130.4932
269.531250 109.064 128.8628
269.897461 108.650 127.3453
270.263672 108.204 125.9865
270.629883 107.725 124.8436
270.996094 107.215 123.9844
271.362305 106.679 123.4802
271.728516 106.127 123.3988
272.094727 105.571 123.7950
272.460938 105.028 124.7035
272.827148 104.518 126.1295
273.193359 104.060 128.0385
273.559570 103.677 130.3452
273.925781 103.384 132.9088
274.291992 103.190 135.5446
274.658203 103.092 138.0564
275.024414 103.075 140.2780
275.390625 103.117 142.1014
275.756836 103.195 143.4838
276.123047 103.291 144.4296
276.489258 103.387 144.9681
276.855469 103.474 145.1333
277.221680 103.541 144.9548
277.587891 103.578 144.4601
277.954102 103.574 143.6825
278.320312 103.516 142.6715
278.686523 103.392 141.4999
279.052734 103.191 140.2666
279.418945 102.904 139.0961
279.785156 102.525 138.1362
280.151367 102.054 137.5585
280.517578 101.494 137.5591
280.883789 100.856 138.3630
281.250000 100.163 140.2242
281.616211 99.456 143.4056
281.982422 98.801 148.1167
282.348633 98.293 154.3842
282.714844 98.037 161.8866
283.081055 98.106 169.9025
283.447266 98.505 177.5271
283.813477 99.166 -175.9609
284.179688 99.995 -170.9019
284.545898 100.904 -167.3146
284.912109 101.835 -165.0540
285.278320 102.746 -163.9280
285.644531 103.615 -163.7522
286.010742 104.427 -164.3661
286.376953 105.173 -165.6312
286.743164 105.845 -167.4247
287.109375 106.440 -169.6322
287.475586 106.956 -172.1449
287.841797 107.392 -174.8586
288.208008 107.752 -177.6768
288.574219 108.040 179.4866
288.940430 108.264 176.7031
289.306641 108.432 174.0294
289.672852 108.552 171.5076
290.039062 108.632 169.1672
290.405273 108.681 167.0278
290.771484 108.708 165.0994
291.137695 108.719 163.3828
291.503906 108.722 161.8715
291.870117 108.723 160.5529
292.236328 108.730 159.4106
292.602539 108.745 158.4246
292.968750 108.776 157.5675
293.334961 108.828 156.8010
293.701172 108.903 156.0741
294.067383 109.002 155.3280
294.433594 109.122 154.5074
294.799805 109.259 153.5706
295.166016 109.405 152.4934
295.532227 109.555 151.2670
295.898438 109.704 149.8896
296.264648 109.847 148.3615
296.630859 109.981 146.6827
296.997070 110.099 144.8578
297.363281 110.196 142.9000
297.729492 110.267 140.8342
298.095703 110.307 138.6967
298.461914 110.313 136.5320
298.828125 110.282 134.3906
299.194336 110.215 132.3270
299.560547 110.114 130.3982
299.926758 109.983 128.6613
