* Measurement data measured by REW V5.20.8
* Source: ASIO hdspfire, Analog 1 (1)
* Format: 4M Log Swept Sine, 1 sweep at -12.0 dBFS with no timing reference
* Dated: 13 juin 2022 13:36:09
* REW Settings:
*  C-weighting compensation: Off
*  Target level: 75.0 dB
* Note: ; 
* Measurement: on_0x1400_1_0 juin 13
* Smoothing: None
* Frequency Step: 0.36621094 Hz
* Start Frequency: 0.36621094 Hz
*
* Freq(Hz) SPL(dB) Phase(degrees)
0.366211 21.919 16.7460
0.732422 23.446 35.8776
1.098633 26.223 42.5806
1.464844 28.118 36.5781
1.831055 28.188 24.8437
2.197266 25.573 14.3252
2.563477 18.527 38.2445
2.929688 24.658 98.3070
3.295898 30.400 85.7574
3.662109 32.808 58.9007
4.028320 33.358 23.0415
4.394531 33.159 -22.6082
4.760742 33.316 -72.8431
5.126953 32.988 -118.2665
5.493164 28.848 -163.0334
5.859375 25.840 37.6031
6.225586 38.426 -13.2982
6.591797 43.952 -40.8790
6.958008 46.682 -62.8891
7.324219 47.361 -78.2039
7.690430 46.504 -78.4451
8.056641 47.700 -56.2728
8.422852 52.581 -47.6583
8.789062 56.786 -57.2755
9.155273 59.578 -73.2782
9.521484 61.150 -90.8547
9.887695 61.642 -107.4412
10.253906 61.156 -120.2561
10.620117 60.055 -124.9880
10.986328 59.675 -119.1012
11.352539 61.219 -113.3879
11.718750 63.330 -117.3469
12.084961 64.776 -127.3258
12.451172 65.285 -137.9626
12.817383 64.991 -144.1959
13.183594 64.718 -141.0338
13.549805 66.102 -132.2919
13.916016 68.903 -131.1906
14.282227 71.578 -139.1549
14.648438 73.555 -151.7819
15.014648 74.778 -166.0309
15.380859 75.278 -179.9965
15.747070 75.090 168.0142
16.113281 74.303 160.2299
16.479492 73.295 159.6942
16.845703 73.097 166.9751
17.211914 74.452 173.9044
17.578125 76.470 173.3194
17.944336 78.208 166.5297
18.310547 79.354 156.5491
18.676758 79.844 145.5352
19.042969 79.653 135.1987
19.409180 78.770 127.5345
19.775391 77.290 125.6759
20.141602 75.842 133.8500
20.507812 75.940 150.2330
20.874023 77.819 162.4631
21.240234 80.104 166.8600
21.606445 82.206 166.9155
21.972656 84.121 164.8419
22.338867 85.903 161.2462
22.705078 87.535 156.3032
23.071289 88.971 150.4044
23.437500 90.199 144.1968
23.803711 91.254 138.3353
24.169922 92.243 133.1715
24.536133 93.279 128.5156
24.902344 94.424 123.7027
25.268555 95.645 118.0347
25.634766 96.857 111.2019
26.000977 97.979 103.3232
26.367188 98.968 94.7336
26.733398 99.813 85.7790
27.099609 100.528 76.7151
27.465820 101.131 67.6948
27.832031 101.638 58.8082
28.198242 102.061 50.1345
28.564453 102.417 41.7643
28.930664 102.730 33.7709
29.296875 103.032 26.1444
29.663086 103.355 18.7399
30.029297 103.709 11.3024
30.395508 104.078 3.5806
30.761719 104.424 -4.5449
31.127930 104.707 -13.0070
31.494141 104.901 -21.5937
31.860352 105.006 -30.0386
32.226562 105.043 -38.1215
32.592773 105.041 -45.7424
32.958984 105.028 -52.9432
33.325195 105.024 -59.8578
33.691406 105.026 -66.6146
34.057617 105.021 -73.2596
34.423828 104.999 -79.7496
34.790039 104.959 -86.0067
35.156250 104.910 -91.9860
35.522461 104.864 -97.7083
35.888672 104.822 -103.2386
36.254883 104.781 -108.6343
36.621094 104.732 -113.9082
36.987305 104.669 -119.0335
37.353516 104.590 -123.9786
37.719727 104.497 -128.7328
38.085938 104.390 -133.2974
38.452148 104.264 -137.6514
38.818359 104.118 -141.7280
39.184570 103.961 -145.4402
39.550781 103.818 -148.7510
39.916992 103.714 -151.7511
40.283203 103.666 -154.6638
40.649414 103.659 -157.7485
41.015625 103.658 -161.1595
41.381836 103.618 -164.8657
41.748047 103.506 -168.6713
42.114258 103.313 -172.2993
42.480469 103.052 -175.4867
42.846680 102.752 -178.0603
43.212891 102.456 -179.9792
43.579102 102.190 178.6727
43.945312 101.970 177.7456
44.311523 101.792 177.1033
44.677734 101.650 176.6852
45.043945 101.535 176.5222
45.410156 101.449 176.7045
45.776367 101.410 177.3120
46.142578 101.450 178.3323
46.508789 101.599 179.6094
46.875000 101.869 -179.1235
47.241211 102.250 -178.1345
47.607422 102.712 -177.5833
47.973633 103.228 -177.4984
48.339844 103.783 -177.8384
48.706055 104.372 -178.5770
49.072266 104.996 -179.7518
49.438477 105.650 178.5449
49.804688 106.317 176.2164
50.170898 106.973 173.2129
50.537109 107.589 169.5558
50.903320 108.142 165.3304
51.269531 108.615 160.6643
51.635742 108.997 155.7026
52.001953 109.286 150.5902
52.368164 109.484 145.4585
52.734375 109.599 140.4172
53.100586 109.642 135.5479
53.466797 109.625 130.9014
53.833008 109.558 126.4993
54.199219 109.452 122.3397
54.565430 109.312 118.4094
54.931641 109.141 114.6980
55.297852 108.940 111.2108
55.664062 108.708 107.9760
56.030273 108.449 105.0413
56.396484 108.171 102.4614
56.762695 107.886 100.2766
57.128906 107.610 98.4902
57.495117 107.362 97.0566
57.861328 107.151 95.8867
58.227539 106.985 94.8735
58.593750 106.858 93.9253
58.959961 106.763 92.9871
59.326172 106.692 92.0417
59.692383 106.639 91.0933
60.058594 106.607 90.1455
60.424805 106.597 89.1880
60.791016 106.612 88.1918
61.157227 106.650 87.1176
61.523438 106.706 85.9290
61.889648 106.773 84.6039
62.255859 106.843 83.1406
62.622070 106.911 81.5552
62.988281 106.975 79.8704
63.354492 107.035 78.1036
63.720703 107.093 76.2594
64.086914 107.147 74.3301
64.453125 107.193 72.3079
64.819336 107.228 70.1968
65.185547 107.249 68.0186
65.551758 107.255 65.8035
65.917969 107.246 63.5745
66.284180 107.224 61.3350
66.650391 107.191 59.0696
67.016602 107.143 56.7620
67.382812 107.074 54.4166
67.749023 106.977 52.0707
68.115234 106.850 49.7871
68.481445 106.696 47.6307
68.847656 106.524 45.6427
69.213867 106.340 43.8282
69.580078 106.152 42.1659
69.946289 105.958 40.6329
70.312500 105.758 39.2292
70.678711 105.550 37.9817
71.044922 105.338 36.9283
71.411133 105.131 36.0922
71.777344 104.936 35.4636
72.143555 104.763 35.0028
72.509766 104.613 34.6577
72.875977 104.485 34.3859
73.242188 104.378 34.1635
73.608398 104.290 33.9799
73.974609 104.220 33.8271
74.340820 104.169 33.6932
74.707031 104.138 33.5641
75.073242 104.126 33.4291
75.439453 104.132 33.2819
75.805664 104.158 33.1119
76.171875 104.207 32.8933
76.538086 104.277 32.5791
76.904297 104.363 32.1107
77.270508 104.459 31.4396
77.636719 104.553 30.5514
78.002930 104.630 29.4784
78.369141 104.682 28.2919
78.735352 104.708 27.0803
79.101562 104.708 25.9235
79.467773 104.692 24.8740
79.833984 104.668 23.9547
80.200195 104.643 23.1642
80.566406 104.624 22.4856
80.932617 104.618 21.8883
81.298828 104.627 21.3259
81.665039 104.651 20.7434
82.031250 104.682 20.0990
82.397461 104.711 19.3933
82.763672 104.728 18.6820
83.129883 104.733 18.0585
83.496094 104.736 17.6079
83.862305 104.756 17.3551
84.228516 104.809 17.2380
84.594727 104.906 17.1310
84.960938 105.044 16.9041
85.327148 105.208 16.4774
85.693359 105.385 15.8361
86.059570 105.566 15.0040
86.425781 105.746 14.0089
86.791992 105.923 12.8630
87.158203 106.095 11.5688
87.524414 106.256 10.1368
87.890625 106.401 8.5964
88.256836 106.529 6.9933
88.623047 106.641 5.3726
88.989258 106.742 3.7618
89.355469 106.839 2.1627
89.721680 106.936 0.5535
90.087891 107.034 -1.0974
90.454102 107.131 -2.8175
90.820312 107.222 -4.6204
91.186523 107.304 -6.5027
91.552734 107.374 -8.4495
91.918945 107.429 -10.4412
92.285156 107.468 -12.4611
92.651367 107.493 -14.4971
93.017578 107.504 -16.5392
93.383789 107.499 -18.5723
93.750000 107.480 -20.5730
94.116211 107.448 -22.5146
94.482422 107.411 -24.3798
94.848633 107.372 -26.1743
95.214844 107.337 -27.9323
95.581055 107.307 -29.7040
95.947266 107.277 -31.5333
96.313477 107.239 -33.4360
96.679688 107.184 -35.3923
97.045898 107.110 -37.3582
97.412109 107.016 -39.2860
97.778320 106.905 -41.1417
98.144531 106.782 -42.9108
98.510742 106.650 -44.5912
98.876953 106.510 -46.1816
99.243164 106.365 -47.6757
99.609375 106.217 -49.0669
99.975586 106.070 -50.3589
100.341797 105.929 -51.5720
100.708008 105.793 -52.7383
101.074219 105.662 -53.8851
101.440430 105.530 -55.0203
101.806641 105.392 -56.1262
102.172852 105.249 -57.1685
102.539062 105.102 -58.1129
102.905273 104.957 -58.9415
103.271484 104.822 -59.6616
103.637695 104.701 -60.3043
104.003906 104.599 -60.9161
104.370117 104.515 -61.5480
104.736328 104.445 -62.2441
105.102539 104.382 -63.0327
105.468750 104.318 -63.9193
105.834961 104.248 -64.8857
106.201172 104.166 -65.8970
106.567383 104.071 -66.9124
106.933594 103.965 -67.8986
107.299805 103.851 -68.8361
107.666016 103.731 -69.7180
108.032227 103.608 -70.5431
108.398438 103.484 -71.3103
108.764648 103.359 -72.0186
109.130859 103.236 -72.6709
109.497070 103.115 -73.2772
109.863281 102.998 -73.8516
110.229492 102.882 -74.4042
110.595703 102.765 -74.9344
110.961914 102.646 -75.4316
111.328125 102.525 -75.8815
111.694336 102.404 -76.2733
112.060547 102.285 -76.6027
112.426758 102.169 -76.8677
112.792969 102.058 -77.0676
113.159180 101.957 -77.2074
113.525391 101.867 -77.3047
113.891602 101.791 -77.3916
114.257812 101.724 -77.5033
114.624023 101.661 -77.6572
114.990234 101.595 -77.8385
115.356445 101.523 -78.0024
115.722656 101.446 -78.0962
116.088867 101.371 -78.0870
116.455078 101.308 -77.9799
116.821289 101.263 -77.8140
117.187500 101.237 -77.6418
117.553711 101.226 -77.5040
117.919922 101.227 -77.4176
118.286133 101.234 -77.3795
118.652344 101.245 -77.3792
119.018555 101.261 -77.4081
119.384766 101.281 -77.4655
119.750977 101.305 -77.5558
120.117188 101.334 -77.6858
120.483398 101.365 -77.8605
120.849609 101.395 -78.0781
121.215820 101.422 -78.3279
121.582031 101.447 -78.5900
121.948242 101.468 -78.8409
122.314453 101.488 -79.0630
122.680664 101.510 -79.2511
123.046875 101.537 -79.4148
123.413086 101.570 -79.5703
123.779297 101.609 -79.7310
124.145508 101.652 -79.8989
124.511719 101.699 -80.0664
124.877930 101.749 -80.2239
125.244141 101.806 -80.3694
125.610352 101.871 -80.5131
125.976562 101.946 -80.6735
126.342773 102.028 -80.8677
126.708984 102.116 -81.1016
127.075195 102.207 -81.3671
127.441406 102.300 -81.6466
127.807617 102.398 -81.9244
128.173828 102.504 -82.1978
128.540039 102.623 -82.4827
128.906250 102.756 -82.8108
129.272461 102.903 -83.2194
129.638672 103.060 -83.7388
130.004883 103.222 -84.3837
130.371094 103.385 -85.1522
130.737305 103.544 -86.0315
131.103516 103.699 -87.0063
131.469727 103.849 -88.0677
131.835938 103.994 -89.2145
132.202148 104.132 -90.4507
132.568359 104.261 -91.7782
132.934570 104.378 -93.1895
133.300781 104.480 -94.6646
133.666992 104.566 -96.1753
134.033203 104.635 -97.6921
134.399414 104.692 -99.1932
134.765625 104.738 -100.6689
135.131836 104.777 -102.1199
135.498047 104.810 -103.5505
135.864258 104.838 -104.9635
136.230469 104.861 -106.3563
136.596680 104.881 -107.7261
136.962891 104.900 -109.0753
137.329102 104.920 -110.4158
137.695312 104.942 -111.7670
138.061523 104.964 -113.1487
138.427734 104.985 -114.5742
138.793945 105.002 -116.0466
139.160156 105.013 -117.5618
139.526367 105.017 -119.1146
139.892578 105.012 -120.7034
140.258789 104.998 -122.3286
140.625000 104.970 -123.9871
140.991211 104.927 -125.6648
141.357422 104.865 -127.3353
141.723633 104.786 -128.9644
142.089844 104.690 -130.5211
142.456055 104.582 -131.9875
142.822266 104.465 -133.3619
143.188477 104.343 -134.6521
143.554688 104.216 -135.8630
143.920898 104.084 -136.9890
144.287109 103.948 -138.0159
144.653320 103.814 -138.9344
145.019531 103.684 -139.7544
145.385742 103.563 -140.5066
145.751953 103.450 -141.2272
146.118164 103.340 -141.9336
146.484375 103.227 -142.6078
146.850586 103.110 -143.2035
147.216797 102.995 -143.6764
147.583008 102.891 -144.0182
147.949219 102.808 -144.2721
148.315430 102.749 -144.5146
148.681641 102.707 -144.8137
149.047852 102.674 -145.1910
149.414062 102.640 -145.6172
149.780273 102.604 -146.0392
150.146484 102.571 -146.4215
150.512695 102.549 -146.7720
150.878906 102.543 -147.1366
151.245117 102.549 -147.5686
151.611328 102.560 -148.0947
151.977539 102.569 -148.7020
152.343750 102.572 -149.3506
152.709961 102.569 -149.9996
153.076172 102.566 -150.6277
153.442383 102.566 -151.2357
153.808594 102.571 -151.8359
154.174805 102.582 -152.4375
154.541016 102.600 -153.0416
154.907227 102.626 -153.6505
155.273438 102.665 -154.2805
155.639648 102.720 -154.9696
156.005859 102.788 -155.7698
156.372070 102.864 -156.7278
156.738281 102.939 -157.8652
157.104492 103.004 -159.1702
157.470703 103.050 -160.6025
157.836914 103.076 -162.1108
158.203125 103.082 -163.6498
158.569336 103.070 -165.1915
158.935547 103.045 -166.7255
159.301758 103.006 -168.2496
159.667969 102.954 -169.7579
160.034180 102.889 -171.2335
160.400391 102.811 -172.6500
160.766602 102.725 -173.9816
161.132812 102.635 -175.2146
161.499023 102.548 -176.3561
161.865234 102.470 -177.4318
162.231445 102.404 -178.4794
162.597656 102.351 -179.5385
162.963867 102.308 179.3568
163.330078 102.272 178.1796
163.696289 102.241 176.9109
164.062500 102.211 175.5391
164.428711 102.177 174.0602
164.794922 102.136 172.4777
165.161133 102.084 170.8014
165.527344 102.020 169.0437
165.893555 101.942 167.2172
166.259766 101.850 165.3322
166.625977 101.744 163.3962
166.992188 101.623 161.4148
167.358398 101.488 159.3909
167.724609 101.339 157.3240
168.090820 101.176 155.2085
168.457031 101.001 153.0326
168.823242 100.810 150.7787
169.189453 100.602 148.4259
169.555664 100.373 145.9548
169.921875 100.116 143.3528
170.288086 99.824 140.6202
170.654297 99.487 137.7743
171.020508 99.099 134.8490
171.386719 98.654 131.8903
171.752930 98.149 128.9463
172.119141 97.582 126.0577
172.485352 96.954 123.2509
172.851562 96.261 120.5387
173.217773 95.501 117.9286
173.583984 94.666 115.4313
173.950195 93.749 113.0625
174.316406 92.744 110.8290
174.682617 91.641 108.6995
175.048828 90.426 106.5698
175.415039 89.066 104.2354
175.781250 87.495 101.3682
176.147461 85.590 97.4501
176.513672 83.134 91.4735
176.879883 79.725 80.6470
177.246094 74.917 53.8191
177.612305 73.591 -10.2913
177.978516 78.771 -48.3220
178.344727 82.904 -62.5305
178.710938 85.913 -70.3185
179.077148 88.258 -75.9103
179.443359 90.178 -80.6259
179.809570 91.800 -84.9851
180.175781 93.195 -89.2147
180.541992 94.409 -93.4155
180.908203 95.471 -97.6321
181.274414 96.404 -101.8837
181.640625 97.221 -106.1753
182.006836 97.934 -110.5016
182.373047 98.550 -114.8473
182.739258 99.077 -119.1915
183.105469 99.519 -123.5112
183.471680 99.882 -127.7858
183.837891 100.170 -131.9972
184.204102 100.386 -136.1290
184.570312 100.531 -140.1610
184.936523 100.604 -144.0640
185.302734 100.606 -147.7958
185.668945 100.535 -151.2990
186.035156 100.393 -154.4995
186.401367 100.184 -157.3090
186.767578 99.914 -159.6276
187.133789 99.597 -161.3524
187.500000 99.251 -162.3909
187.866211 98.901 -162.6779
188.232422 98.578 -162.1974
188.598633 98.312 -161.0009
188.964844 98.136 -159.2162
189.331055 98.071 -157.0419
189.697266 98.127 -154.7195
190.063477 98.300 -152.4924
190.429688 98.574 -150.5621
190.795898 98.925 -149.0597
191.162109 99.328 -148.0438
191.528320 99.761 -147.5192
191.894531 100.209 -147.4607
192.260742 100.659 -147.8336
192.626953 101.100 -148.6018
192.993164 101.525 -149.7281
193.359375 101.927 -151.1720
193.725586 102.301 -152.8883
194.091797 102.642 -154.8302
194.458008 102.951 -156.9519
194.824219 103.224 -159.2129
195.190430 103.464 -161.5790
195.556641 103.669 -164.0225
195.922852 103.843 -166.5197
196.289062 103.983 -169.0492
196.655273 104.092 -171.5896
197.021484 104.170 -174.1182
197.387695 104.217 -176.6110
197.753906 104.235 -179.0441
198.120117 104.227 178.6046
198.486328 104.194 176.3533
198.852539 104.140 174.2164
199.218750 104.068 172.2057
199.584961 103.980 170.3304
199.951172 103.880 168.5988
200.317383 103.772 167.0157
200.683594 103.659 165.5814
201.049805 103.545 164.2898
201.416016 103.433 163.1289
201.782227 103.325 162.0831
202.148438 103.223 161.1359
202.514648 103.128 160.2716
202.880859 103.040 159.4774
203.247070 102.959 158.7443
203.613281 102.885 158.0674
203.979492 102.818 157.4459
204.345703 102.759 156.8801
204.711914 102.709 156.3667
205.078125 102.672 155.8944
205.444336 102.649 155.4440
205.810547 102.641 154.9895
206.176758 102.647 154.5040
206.542969 102.665 153.9640
206.909180 102.692 153.3501
207.275391 102.725 152.6478
207.641602 102.761 151.8470
208.007812 102.795 150.9435
208.374023 102.822 149.9415
208.740234 102.838 148.8550
209.106445 102.839 147.7069
209.472656 102.824 146.5269
209.838867 102.791 145.3462
210.205078 102.741 144.1947
210.571289 102.677 143.0972
210.937500 102.600 142.0712
211.303711 102.515 141.1268
211.669922 102.425 140.2672
212.036133 102.332 139.4894
212.402344 102.238 138.7865
212.768555 102.143 138.1489
213.134766 102.050 137.5658
213.500977 101.958 137.0266
213.867188 101.864 136.5229
214.233398 101.768 136.0532
214.599609 101.665 135.6256
214.965820 101.554 135.2623
215.332031 101.433 134.9995
215.698242 101.304 134.8828
216.064453 101.171 134.9583
216.430664 101.043 135.2598
216.796875 100.932 135.7953
217.163086 100.849 136.5415
217.529297 100.803 137.4463
217.895508 100.801 138.4404
218.261719 100.844 139.4501
218.627930 100.932 140.4037
218.994141 101.060 141.2341
219.360352 101.222 141.8833
219.726562 101.408 142.3118
220.092773 101.607 142.5098
220.458984 101.811 142.4973
220.825195 102.013 142.3112
221.191406 102.214 141.9817
221.557617 102.412 141.5189
221.923828 102.606 140.9155
222.290039 102.792 140.1677
222.656250 102.964 139.2974
223.022461 103.116 138.3563
223.388672 103.251 137.4092
223.754883 103.374 136.5032
224.121094 103.495 135.6458
224.487305 103.622 134.8059
224.853516 103.755 133.9388
225.219727 103.892 133.0142
225.585938 104.030 132.0256
225.952148 104.168 130.9774
226.318359 104.305 129.8638
226.684570 104.440 128.6638
227.050781 104.567 127.3602
227.416992 104.678 125.9700
227.783203 104.764 124.5604
228.149414 104.828 123.2332
228.515625 104.881 122.0787
228.881836 104.943 121.1244
229.248047 105.035 120.3057
229.614258 105.168 119.4874
229.980469 105.338 118.5244
230.346680 105.532 117.3209
230.712891 105.735 115.8502
231.079102 105.936 114.1289
231.445312 106.132 112.1747
231.811523 106.319 109.9775
232.177734 106.493 107.5024
232.543945 106.643 104.7153
232.910156 106.752 101.6156
233.276367 106.802 98.2545
233.642578 106.779 94.7344
234.008789 106.676 91.1923
234.375000 106.490 87.7786
234.741211 106.231 84.6348
235.107422 105.911 81.8745
235.473633 105.550 79.5706
235.839844 105.166 77.7507
236.206055 104.775 76.4048
236.572266 104.392 75.5012
236.938477 104.024 75.0048
237.304688 103.683 74.8861
237.670898 103.375 75.1163
238.037109 103.112 75.6515
238.403320 102.903 76.4185
238.769531 102.753 77.3176
239.135742 102.663 78.2411
239.501953 102.623 79.0989
239.868164 102.625 79.8368
240.234375 102.656 80.4392
240.600586 102.708 80.9210
240.966797 102.776 81.3160
241.333008 102.859 81.6659
241.699219 102.960 82.0067
242.065430 103.087 82.3555
242.431641 103.249 82.6949
242.797852 103.456 82.9666
243.164062 103.712 83.0786
243.530273 104.015 82.9269
243.896484 104.356 82.4205
244.262695 104.722 81.5000
244.628906 105.099 80.1399
244.995117 105.474 78.3416
245.361328 105.837 76.1217
245.727539 106.177 73.5044
246.093750 106.487 70.5173
246.459961 106.759 67.1934
246.826172 106.984 63.5737
247.192383 107.156 59.7106
247.558594 107.269 55.6666
247.924805 107.320 51.5140
248.291016 107.309 47.3301
248.657227 107.237 43.1921
249.023438 107.109 39.1711
249.389648 106.934 35.3269
249.755859 106.720 31.7020
250.122070 106.480 28.3195
250.488281 106.223 25.1805
250.854492 105.960 22.2681
251.220703 105.699 19.5508
251.586914 105.446 16.9915
251.953125 105.205 14.5533
252.319336 104.978 12.2054
252.685547 104.767 9.9230
253.051758 104.575 7.6852
253.417969 104.405 5.4712
253.784180 104.260 3.2568
254.150391 104.142 1.0132
254.516602 104.056 -1.2937
254.882812 104.003 -3.7028
255.249023 103.987 -6.2582
255.615234 104.007 -9.0089
255.981445 104.065 -12.0078
256.347656 104.158 -15.3093
256.713867 104.285 -18.9659
257.080078 104.443 -23.0261
257.446289 104.626 -27.5337
257.812500 104.832 -32.5272
258.178711 105.056 -38.0391
258.544922 105.292 -44.0941
258.911133 105.536 -50.7075
259.277344 105.784 -57.8834
259.643555 106.031 -65.6149
260.009766 106.274 -73.8835
260.375977 106.510 -82.6602
260.742188 106.734 -91.9036
261.108398 106.942 -101.5610
261.474609 107.130 -111.5654
261.840820 107.292 -121.8384
262.207031 107.423 -132.2910
262.573242 107.518 -142.8286
262.939453 107.573 -153.3550
263.305664 107.585 -163.7769
263.671875 107.551 -174.0088
264.038086 107.469 176.0264
264.404297 107.340 166.3955
264.770508 107.164 157.1553
265.136719 106.943 148.3511
265.502930 106.680 140.0190
265.869141 106.379 132.1838
266.235352 106.043 124.8596
266.601562 105.678 118.0518
266.967773 105.287 111.7598
267.333984 104.874 105.9810
267.700195 104.443 100.7141
268.066406 103.998 95.9600
268.432617 103.543 91.7168
268.798828 103.085 87.9768
269.165039 102.628 84.7241
269.531250 102.177 81.9385
269.897461 101.736 79.6033
270.263672 101.308 77.7119
270.629883 100.898 76.2637
270.996094 100.517 75.2495
271.362305 100.174 74.6313
271.728516 99.880 74.3357
272.094727 99.638 74.2649
272.460938 99.447 74.3257
272.827148 99.300 74.4529
273.193359 99.191 74.6128
273.559570 99.114 74.7864
273.925781 99.068 74.9507
274.291992 99.048 75.0742
274.658203 99.047 75.1323
275.024414 99.056 75.1284
275.390625 99.065 75.1050
275.756836 99.071 75.1360
276.123047 99.077 75.3040
276.489258 99.094 75.6733
276.855469 99.135 76.2710
277.221680 99.217 77.0781
277.587891 99.354 78.0330
277.954102 99.555 79.0415
278.320312 99.824 79.9885
278.686523 100.160 80.7537
279.052734 100.555 81.2273
279.418945 100.996 81.3262
279.785156 101.466 81.0042
280.151367 101.949 80.2561
280.517578 102.431 79.1118
280.883789 102.902 77.6243
281.250000 103.358 75.8562
281.616211 103.796 73.8660
281.982422 104.220 71.6975
282.348633 104.635 69.3733
282.714844 105.043 66.8948
283.081055 105.449 64.2458
283.447266 105.853 61.4011
283.813477 106.255 58.3325
284.179688 106.651 55.0149
284.545898 107.037 51.4285
284.912109 107.408 47.5610
285.278320 107.756 43.4104
285.644531 108.076 38.9863
286.010742 108.360 34.3125
286.376953 108.602 29.4287
286.743164 108.797 24.3862
287.109375 108.945 19.2446
287.475586 109.046 14.0637
287.841797 109.104 8.8965
288.208008 109.125 3.7839
288.574219 109.116 -1.2495
288.940430 109.085 -6.1931
289.306641 109.037 -11.0488
289.672852 108.977 -15.8250
290.039062 108.911 -20.5322
290.405273 108.841 -25.1829
290.771484 108.771 -29.7900
291.137695 108.706 -34.3699
291.503906 108.647 -38.9417
291.870117 108.597 -43.5271
292.236328 108.558 -48.1487
292.602539 108.530 -52.8257
292.968750 108.513 -57.5735
293.334961 108.507 -62.4060
293.701172 108.513 -67.3364
294.067383 108.531 -72.3792
294.433594 108.559 -77.5508
294.799805 108.597 -82.8652
295.166016 108.640 -88.3306
295.532227 108.685 -93.9446
295.898438 108.728 -99.6941
296.264648 108.766 -105.5574
296.630859 108.799 -111.5078
296.997070 108.824 -117.5195
297.363281 108.842 -123.5696
297.729492 108.854 -129.6394
298.095703 108.859 -135.7122
298.461914 108.856 -141.7717
298.828125 108.846 -147.8020
299.194336 108.829 -153.7874
299.560547 108.804 -159.7131
299.926758 108.771 -165.5684
