* Measurement data measured by REW V5.20.8
* Source: ASIO hdspfire, Analog 1 (1)
* Format: 4M Log Swept Sine, 1 sweep at -12.0 dBFS with no timing reference
* Dated: 13 juin 2022 13:35:05
* REW Settings:
*  C-weighting compensation: Off
*  Target level: 75.0 dB
* Note: ; 
* Measurement: on_0x1400_0_0 juin 13
* Smoothing: None
* Frequency Step: 0.36621094 Hz
* Start Frequency: 0.36621094 Hz
*
* Freq(Hz) SPL(dB) Phase(degrees)
0.366211 17.341 108.6411
0.732422 20.430 68.6042
1.098633 21.192 35.2055
1.464844 20.012 -4.8926
1.831055 19.121 -66.7510
2.197266 22.724 -127.8377
2.563477 26.749 -165.5806
2.929688 29.253 166.5835
3.295898 30.261 142.1268
3.662109 29.737 118.8846
4.028320 27.401 96.4394
4.394531 22.594 77.1916
4.760742 16.200 78.8609
5.126953 20.011 78.1314
5.493164 28.383 42.1692
5.859375 35.321 10.9134
6.225586 40.290 -15.3063
6.591797 43.640 -38.5179
6.958008 45.623 -58.9681
7.324219 46.370 -75.3837
7.690430 46.092 -84.2717
8.056641 45.841 -80.6124
8.422852 47.629 -71.3932
8.789062 50.649 -72.5378
9.155273 53.100 -82.6248
9.521484 54.522 -95.6361
9.887695 54.937 -106.8849
10.253906 54.697 -111.3336
10.620117 55.072 -105.8597
10.986328 57.322 -100.1238
11.352539 60.243 -104.0303
11.718750 62.584 -114.7233
12.084961 64.026 -127.5542
12.451172 64.553 -138.8616
12.817383 64.344 -144.5211
13.183594 64.263 -140.2363
13.549805 65.888 -130.8378
13.916016 68.837 -129.2567
14.282227 71.619 -136.4146
14.648438 73.713 -148.0864
15.014648 75.073 -161.4344
15.380859 75.733 -174.7175
15.747070 75.729 173.5571
16.113281 75.126 165.3096
16.479492 74.200 163.3058
16.845703 73.799 169.1320
17.211914 74.865 176.7704
17.578125 76.846 177.7741
17.944336 78.702 171.9189
18.310547 80.006 162.1804
18.676758 80.654 150.9285
19.042969 80.619 139.9794
19.409180 79.895 131.2698
19.775391 78.562 127.5982
20.141602 77.110 132.7209
20.507812 76.793 146.4031
20.874023 78.158 158.7918
21.240234 80.136 164.6552
21.606445 82.082 166.4578
21.972656 83.972 166.1605
22.338867 85.843 163.9605
22.705078 87.619 159.7153
23.071289 89.180 153.8425
23.437500 90.467 147.2488
23.803711 91.494 140.9402
24.169922 92.383 135.6396
24.536133 93.299 131.4070
24.902344 94.368 127.4965
25.268555 95.588 122.8424
25.634766 96.853 116.8225
26.000977 98.045 109.4898
26.367188 99.098 101.2750
26.733398 100.001 92.6432
27.099609 100.777 83.9100
27.465820 101.458 75.2009
27.832031 102.064 66.5100
28.198242 102.601 57.8055
28.564453 103.063 49.1158
28.930664 103.450 40.5450
29.296875 103.775 32.2179
29.663086 104.062 24.1951
30.029297 104.339 16.4172
30.395508 104.619 8.7255
30.761719 104.895 0.9554
31.127930 105.143 -6.9608
31.494141 105.342 -14.9574
31.860352 105.483 -22.8775
32.226562 105.577 -30.5594
32.592773 105.641 -37.9161
32.958984 105.696 -44.9670
33.325195 105.758 -51.8076
33.691406 105.826 -58.5357
34.057617 105.890 -65.1945
34.423828 105.943 -71.7656
34.790039 105.981 -78.2077
35.156250 106.008 -84.4965
35.522461 106.024 -90.6335
35.888672 106.028 -96.6251
36.254883 106.018 -102.4597
36.621094 105.995 -108.1152
36.987305 105.965 -113.5954
37.353516 105.931 -118.9595
37.719727 105.886 -124.2998
38.085938 105.810 -129.6639
38.452148 105.674 -134.9719
38.818359 105.461 -139.9905
39.184570 105.183 -144.3994
39.550781 104.890 -147.9480
39.916992 104.657 -150.6597
40.283203 104.547 -152.9380
40.649414 104.566 -155.4037
41.015625 104.652 -158.5304
41.381836 104.720 -162.4119
41.748047 104.701 -166.8070
42.114258 104.565 -171.3193
42.480469 104.313 -175.5562
42.846680 103.973 -179.2223
43.212891 103.587 177.8434
43.579102 103.192 175.6707
43.945312 102.819 174.1885
44.311523 102.487 173.2654
44.677734 102.205 172.7551
45.043945 101.968 172.5503
45.410156 101.764 172.6345
45.776367 101.588 173.0939
46.142578 101.454 174.0579
46.508789 101.395 175.5813
46.875000 101.454 177.5438
47.241211 101.655 179.6626
47.607422 101.996 -178.3760
47.973633 102.456 -176.7893
48.339844 103.015 -175.6918
48.706055 103.658 -175.1719
49.072266 104.367 -175.3428
49.438477 105.120 -176.3157
49.804688 105.882 -178.1403
50.170898 106.621 179.2227
50.537109 107.309 175.8818
50.903320 107.931 171.9733
51.269531 108.478 167.6288
51.635742 108.946 162.9626
52.001953 109.333 158.0752
52.368164 109.639 153.0591
52.734375 109.868 148.0020
53.100586 110.024 142.9819
53.466797 110.116 138.0583
53.833008 110.152 133.2662
54.199219 110.139 128.6167
54.565430 110.083 124.1073
54.931641 109.986 119.7357
55.297852 109.847 115.5115
55.664062 109.667 111.4603
56.030273 109.449 107.6196
56.396484 109.195 104.0295
56.762695 108.914 100.7251
57.128906 108.612 97.7288
57.495117 108.300 95.0468
57.861328 107.986 92.6691
58.227539 107.680 90.5693
58.593750 107.385 88.7112
58.959961 107.103 87.0597
59.326172 106.832 85.5942
59.692383 106.572 84.3164
60.058594 106.326 83.2424
60.424805 106.104 82.3816
60.791016 105.916 81.7092
61.157227 105.771 81.1561
61.523438 105.671 80.6240
61.889648 105.610 80.0222
62.255859 105.575 79.2996
62.622070 105.559 78.4473
62.988281 105.557 77.4756
63.354492 105.567 76.3829
63.720703 105.588 75.1467
64.086914 105.614 73.7393
64.453125 105.633 72.1583
64.819336 105.637 70.4441
65.185547 105.622 68.6641
65.551758 105.595 66.8770
65.917969 105.561 65.0939
66.284180 105.527 63.2693
66.650391 105.491 61.3307
67.016602 105.440 59.2322
67.382812 105.358 56.9958
67.749023 105.232 54.7133
68.115234 105.059 52.5114
68.481445 104.849 50.4995
68.847656 104.617 48.7290
69.213867 104.375 47.1851
69.580078 104.130 45.8168
69.946289 103.878 44.5870
70.312500 103.615 43.5062
70.678711 103.338 42.6312
71.044922 103.052 42.0334
71.411133 102.769 41.7612
71.777344 102.504 41.8186
72.143555 102.270 42.1670
72.509766 102.078 42.7416
72.875977 101.932 43.4647
73.242188 101.835 44.2534
73.608398 101.785 45.0262
73.974609 101.775 45.7184
74.340820 101.795 46.2975
74.707031 101.840 46.7654
75.073242 101.905 47.1400
75.439453 101.991 47.4301
75.805664 102.100 47.6185
76.171875 102.233 47.6648
76.538086 102.382 47.5234
76.904297 102.541 47.1624
77.270508 102.701 46.5717
77.636719 102.855 45.7634
78.002930 102.995 44.7667
78.369141 103.115 43.6229
78.735352 103.213 42.3821
79.101562 103.285 41.0981
79.467773 103.334 39.8242
79.833984 103.362 38.6068
80.200195 103.374 37.4830
80.566406 103.378 36.4753
80.932617 103.384 35.5847
81.298828 103.399 34.7832
81.665039 103.428 34.0170
82.031250 103.470 33.2247
82.397461 103.517 32.3679
82.763672 103.560 31.4543
83.129883 103.593 30.5380
83.496094 103.619 29.6907
83.862305 103.647 28.9584
84.228516 103.689 28.3287
84.594727 103.758 27.7307
84.960938 103.853 27.0697
85.327148 103.967 26.2739
85.693359 104.089 25.3206
86.059570 104.212 24.2284
86.425781 104.330 23.0292
86.791992 104.446 21.7411
87.158203 104.560 20.3616
87.524414 104.669 18.8765
87.890625 104.771 17.2789
88.256836 104.859 15.5804
88.623047 104.929 13.8127
88.989258 104.981 12.0183
89.355469 105.015 10.2388
89.721680 105.038 8.5028
90.087891 105.054 6.8185
90.454102 105.069 5.1721
90.820312 105.087 3.5337
91.186523 105.107 1.8702
91.552734 105.127 0.1570
91.918945 105.143 -1.6151
92.285156 105.150 -3.4424
92.651367 105.148 -5.3156
93.017578 105.135 -7.2257
93.383789 105.109 -9.1628
93.750000 105.070 -11.1095
94.116211 105.017 -13.0394
94.482422 104.954 -14.9236
94.848633 104.885 -16.7468
95.214844 104.815 -18.5214
95.581055 104.749 -20.2870
95.947266 104.687 -22.0938
96.313477 104.620 -23.9747
96.679688 104.540 -25.9292
97.045898 104.443 -27.9247
97.412109 104.326 -29.9163
97.778320 104.193 -31.8689
98.144531 104.047 -33.7684
98.510742 103.889 -35.6163
98.876953 103.721 -37.4138
99.243164 103.542 -39.1526
99.609375 103.355 -40.8170
99.975586 103.162 -42.3994
100.341797 102.968 -43.9139
100.708008 102.775 -45.3966
101.074219 102.582 -46.8879
101.440430 102.382 -48.4081
101.806641 102.166 -49.9426
102.172852 101.928 -51.4454
102.539062 101.669 -52.8567
102.905273 101.392 -54.1244
103.271484 101.105 -55.2175
103.637695 100.816 -56.1283
104.003906 100.532 -56.8678
104.370117 100.261 -57.4623
104.736328 100.008 -57.9545
105.102539 99.777 -58.4054
105.468750 99.566 -58.8855
105.834961 99.367 -59.4553
106.201172 99.170 -60.1433
106.567383 98.962 -60.9353
106.933594 98.736 -61.7825
107.299805 98.489 -62.6228
107.666016 98.221 -63.4034
108.032227 97.938 -64.0927
108.398438 97.645 -64.6793
108.764648 97.343 -65.1631
109.130859 97.034 -65.5486
109.497070 96.720 -65.8444
109.863281 96.398 -66.0642
110.229492 96.066 -66.2212
110.595703 95.718 -66.3125
110.961914 95.344 -66.3010
111.328125 94.941 -66.1091
111.694336 94.509 -65.6316
112.060547 94.059 -64.7648
112.426758 93.608 -63.4417
112.792969 93.176 -61.6565
113.159180 92.783 -59.4670
113.525391 92.440 -56.9691
113.891602 92.147 -54.2579
114.257812 91.902 -51.3955
114.624023 91.697 -48.3983
114.990234 91.533 -45.2480
115.356445 91.413 -41.9153
115.722656 91.347 -38.3844
116.088867 91.350 -34.6749
116.455078 91.440 -30.8599
116.821289 91.631 -27.0850
117.187500 91.927 -23.5667
117.553711 92.315 -20.5459
117.919922 92.761 -18.1976
118.286133 93.221 -16.5519
118.652344 93.658 -15.4823
119.018555 94.053 -14.7676
119.384766 94.412 -14.1940
119.750977 94.757 -13.6495
120.117188 95.111 -13.1638
120.483398 95.482 -12.8633
120.849609 95.858 -12.8669
121.215820 96.218 -13.1979
121.582031 96.542 -13.7687
121.948242 96.826 -14.4368
122.314453 97.076 -15.0803
122.680664 97.308 -15.6479
123.046875 97.534 -16.1575
123.413086 97.758 -16.6520
123.779297 97.978 -17.1511
124.145508 98.193 -17.6356
124.511719 98.408 -18.0732
124.877930 98.630 -18.4583
125.244141 98.870 -18.8323
125.610352 99.128 -19.2678
125.976562 99.401 -19.8300
126.342773 99.680 -20.5448
126.708984 99.956 -21.3961
127.075195 100.225 -22.3468
127.441406 100.490 -23.3636
127.807617 100.752 -24.4318
128.173828 101.016 -25.5543
128.540039 101.284 -26.7463
128.906250 101.555 -28.0293
129.272461 101.830 -29.4288
129.638672 102.107 -30.9713
130.004883 102.379 -32.6755
130.371094 102.640 -34.5417
130.737305 102.885 -36.5476
131.103516 103.110 -38.6552
131.469727 103.316 -40.8264
131.835938 103.506 -43.0394
132.202148 103.683 -45.2944
132.568359 103.847 -47.6053
132.934570 103.997 -49.9816
133.300781 104.129 -52.4142
133.666992 104.240 -54.8749
134.033203 104.331 -57.3286
134.399414 104.406 -59.7517
134.765625 104.471 -62.1416
135.131836 104.526 -64.5118
135.498047 104.573 -66.8761
135.864258 104.610 -69.2328
136.230469 104.635 -71.5632
136.596680 104.652 -73.8441
136.962891 104.665 -76.0669
137.329102 104.681 -78.2482
137.695312 104.703 -80.4243
138.061523 104.728 -82.6328
138.427734 104.754 -84.8940
138.793945 104.777 -87.2091
139.160156 104.797 -89.5703
139.526367 104.813 -91.9771
139.892578 104.827 -94.4430
140.258789 104.835 -96.9874
140.625000 104.834 -99.6188
140.991211 104.816 -102.3235
141.357422 104.780 -105.0679
141.723633 104.727 -107.8141
142.089844 104.658 -110.5375
142.456055 104.579 -113.2371
142.822266 104.491 -115.9286
143.188477 104.394 -118.6283
143.554688 104.284 -121.3362
143.920898 104.160 -124.0323
144.287109 104.022 -126.6859
144.653320 103.875 -129.2738
145.019531 103.725 -131.7974
145.385742 103.577 -134.2858
145.751953 103.432 -136.7852
146.118164 103.287 -139.3367
146.484375 103.134 -141.9565
146.850586 102.967 -144.6288
147.216797 102.783 -147.3129
147.583008 102.581 -149.9648
147.949219 102.369 -152.5603
148.315430 102.152 -155.1080
148.681641 101.934 -157.6456
149.047852 101.712 -160.2175
149.414062 101.479 -162.8475
149.780273 101.226 -165.5216
150.146484 100.949 -168.1920
150.512695 100.648 -170.7988
150.878906 100.327 -173.2970
151.245117 99.993 -175.6721
151.611328 99.650 -177.9364
151.977539 99.297 179.8947
152.343750 98.932 177.8284
152.709961 98.553 175.9036
153.076172 98.162 174.1796
153.442383 97.765 172.7092
153.808594 97.375 171.5154
154.174805 97.002 170.5870
154.541016 96.654 169.8972
154.907227 96.334 169.4293
155.273438 96.049 169.1866
155.639648 95.810 169.1763
156.005859 95.633 169.3723
156.372070 95.537 169.6829
156.738281 95.532 169.9476
157.104492 95.619 169.9738
157.470703 95.784 169.5891
157.836914 96.006 168.6842
158.203125 96.260 167.2212
158.569336 96.527 165.2178
158.935547 96.793 162.7207
159.301758 97.047 159.7823
159.667969 97.283 156.4487
160.034180 97.496 152.7592
160.400391 97.679 148.7516
160.766602 97.828 144.4728
161.132812 97.937 139.9818
161.499023 98.005 135.3478
161.865234 98.033 130.6389
162.231445 98.026 125.9103
162.597656 97.990 121.1946
162.963867 97.931 116.5001
163.330078 97.852 111.8208
163.696289 97.753 107.1505
164.062500 97.632 102.4958
164.428711 97.487 97.8807
164.794922 97.317 93.3381
165.161133 97.126 88.8989
165.527344 96.916 84.5789
165.893555 96.691 80.3759
166.259766 96.451 76.2780
166.625977 96.193 72.2766
166.992188 95.911 68.3802
167.358398 95.600 64.6204
167.724609 95.253 61.0494
168.090820 94.870 57.7333
168.457031 94.449 54.7457
168.823242 93.992 52.1671
169.189453 93.504 50.0867
169.555664 92.990 48.6058
169.921875 92.463 47.8369
170.288086 91.943 47.8940
170.654297 91.460 48.8684
171.020508 91.056 50.7878
171.386719 90.779 53.5625
171.752930 90.675 56.9402
172.119141 90.770 60.5159
172.485352 91.059 63.8280
172.851562 91.504 66.4985
173.217773 92.050 68.3302
173.583984 92.643 69.3105
173.950195 93.242 69.5541
174.316406 93.823 69.2307
174.682617 94.376 68.5104
175.048828 94.902 67.5292
175.415039 95.407 66.3752
175.781250 95.898 65.0868
176.147461 96.383 63.6659
176.513672 96.861 62.0972
176.879883 97.332 60.3687
177.246094 97.792 58.4816
177.612305 98.238 56.4523
177.978516 98.667 54.3031
178.344727 99.081 52.0536
178.710938 99.479 49.7146
179.077148 99.863 47.2888
179.443359 100.232 44.7751
179.809570 100.585 42.1733
180.175781 100.919 39.4875
180.541992 101.233 36.7257
180.908203 101.523 33.9005
181.274414 101.789 31.0295
181.640625 102.029 28.1361
182.006836 102.240 25.2502
182.373047 102.425 22.4052
182.739258 102.586 19.6337
183.105469 102.726 16.9614
183.471680 102.850 14.4038
183.837891 102.962 11.9651
184.204102 103.068 9.6417
184.570312 103.169 7.4263
184.936523 103.270 5.3103
185.302734 103.372 3.2855
185.668945 103.477 1.3402
186.035156 103.589 -0.5414
186.401367 103.708 -2.3815
186.767578 103.836 -4.2052
187.133789 103.971 -6.0370
187.500000 104.111 -7.8942
187.866211 104.252 -9.7826
188.232422 104.392 -11.6968
188.598633 104.529 -13.6229
188.964844 104.664 -15.5468
189.331055 104.800 -17.4606
189.697266 104.939 -19.3680
190.063477 105.082 -21.2838
190.429688 105.232 -23.2284
190.795898 105.388 -25.2234
191.162109 105.547 -27.2867
191.528320 105.709 -29.4313
191.894531 105.870 -31.6666
192.260742 106.029 -33.9996
192.626953 106.181 -36.4349
192.993164 106.326 -38.9728
193.359375 106.459 -41.6090
193.725586 106.578 -44.3348
194.091797 106.682 -47.1381
194.458008 106.768 -50.0048
194.824219 106.835 -52.9198
195.190430 106.882 -55.8673
195.556641 106.909 -58.8300
195.922852 106.916 -61.7903
196.289062 106.904 -64.7312
196.655273 106.873 -67.6378
197.021484 106.827 -70.4974
197.387695 106.766 -73.3011
197.753906 106.694 -76.0431
198.120117 106.612 -78.7211
198.486328 106.523 -81.3378
198.852539 106.430 -83.9010
199.218750 106.334 -86.4235
199.584961 106.237 -88.9211
199.951172 106.139 -91.4103
200.317383 106.040 -93.9053
200.683594 105.939 -96.4175
201.049805 105.835 -98.9559
201.416016 105.728 -101.5287
201.782227 105.617 -104.1445
202.148438 105.501 -106.8138
202.514648 105.380 -109.5487
202.880859 105.253 -112.3627
203.247070 105.118 -115.2699
203.613281 104.973 -118.2859
203.979492 104.815 -121.4260
204.345703 104.642 -124.7058
204.711914 104.450 -128.1393
205.078125 104.234 -131.7393
205.444336 103.988 -135.5176
205.810547 103.709 -139.4865
206.176758 103.388 -143.6586
206.542969 103.017 -148.0458
206.909180 102.587 -152.6553
207.275391 102.086 -157.4833
207.641602 101.501 -162.5114
208.007812 100.817 -167.7043
208.374023 100.023 -173.0132
208.740234 99.106 -178.3844
209.106445 98.054 176.2291
209.472656 96.858 170.8531
209.838867 95.502 165.4752
210.205078 93.966 160.0242
210.571289 92.217 154.3342
210.937500 90.204 148.0704
211.303711 87.847 140.5428
211.669922 85.035 130.2101
212.036133 81.720 113.3143
212.402344 78.694 82.3019
212.768555 78.778 41.3629
213.134766 81.405 14.2686
213.500977 84.010 0.0643
213.867188 86.121 -8.2411
214.233398 87.829 -13.8013
214.599609 89.249 -17.9495
214.965820 90.459 -21.3207
215.332031 91.511 -24.2533
215.698242 92.438 -26.9397
216.064453 93.262 -29.4905
216.430664 93.997 -31.9659
216.796875 94.653 -34.3926
217.163086 95.238 -36.7760
217.529297 95.761 -39.1107
217.895508 96.229 -41.3882
218.261719 96.648 -43.6040
218.627930 97.026 -45.7594
218.994141 97.367 -47.8593
219.360352 97.676 -49.9078
219.726562 97.955 -51.9070
220.092773 98.208 -53.8595
220.458984 98.438 -55.7742
220.825195 98.647 -57.6676
221.191406 98.834 -59.5557
221.557617 98.996 -61.4408
221.923828 99.130 -63.3014
222.290039 99.237 -65.0970
222.656250 99.319 -66.7888
223.022461 99.386 -68.3640
223.388672 99.444 -69.8481
223.754883 99.495 -71.2900
224.121094 99.533 -72.7278
224.487305 99.549 -74.1582
224.853516 99.537 -75.5288
225.219727 99.496 -76.7632
225.585938 99.433 -77.7979
225.952148 99.356 -78.6074
226.318359 99.273 -79.1953
226.684570 99.184 -79.5603
227.050781 99.090 -79.6626
227.416992 98.999 -79.4246
227.783203 98.931 -78.7798
228.149414 98.913 -77.7437
228.515625 98.975 -76.4604
228.881836 99.126 -75.1667
229.248047 99.357 -74.0981
229.614258 99.641 -73.3950
229.980469 99.953 -73.0779
230.346680 100.272 -73.0913
230.712891 100.592 -73.3621
231.079102 100.913 -73.8413
231.445312 101.236 -74.5144
231.811523 101.562 -75.3916
232.177734 101.888 -76.4927
232.543945 102.212 -77.8345
232.910156 102.527 -79.4287
233.276367 102.827 -81.2751
233.642578 103.104 -83.3608
234.008789 103.352 -85.6538
234.375000 103.566 -88.1079
234.741211 103.743 -90.6670
235.107422 103.886 -93.2793
235.473633 103.998 -95.9092
235.839844 104.084 -98.5400
236.206055 104.148 -101.1748
236.572266 104.192 -103.8237
236.938477 104.213 -106.4941
237.304688 104.212 -109.1816
237.670898 104.187 -111.8723
238.037109 104.137 -114.5498
238.403320 104.066 -117.2043
238.769531 103.976 -119.8384
239.135742 103.867 -122.4656
239.501953 103.738 -125.1021
239.868164 103.586 -127.7578
240.234375 103.408 -130.4316
240.600586 103.200 -133.1077
240.966797 102.960 -135.7642
241.333008 102.687 -138.3779
241.699219 102.381 -140.9297
242.065430 102.043 -143.4067
242.431641 101.673 -145.8008
242.797852 101.269 -148.1074
243.164062 100.832 -150.3245
243.530273 100.359 -152.4539
243.896484 99.847 -154.5020
244.262695 99.288 -156.4768
244.628906 98.673 -158.3818
244.995117 97.986 -160.2039
245.361328 97.206 -161.8979
245.727539 96.305 -163.3694
246.093750 95.251 -164.4446
246.459961 94.002 -164.8228
246.826172 92.507 -163.9724
247.192383 90.718 -160.9116
247.558594 88.645 -153.7795
247.924805 86.580 -139.5215
248.291016 85.540 -116.8940
248.657227 86.443 -94.1118
249.023438 88.402 -79.5957
249.389648 90.383 -72.2400
249.755859 92.083 -68.9705
250.122070 93.492 -67.9049
250.488281 94.658 -68.0593
250.854492 95.631 -68.9126
251.220703 96.451 -70.1768
251.586914 97.150 -71.6833
251.953125 97.750 -73.3306
252.319336 98.271 -75.0530
252.685547 98.725 -76.8096
253.051758 99.125 -78.5742
253.417969 99.479 -80.3276
253.784180 99.791 -82.0522
254.150391 100.066 -83.7224
254.516602 100.308 -85.3037
254.882812 100.522 -86.7524
255.249023 100.714 -88.0220
255.615234 100.896 -89.0737
255.981445 101.079 -89.8857
256.347656 101.279 -90.4639
256.713867 101.509 -90.8467
257.080078 101.784 -91.1096
257.446289 102.111 -91.3623
257.812500 102.496 -91.7383
258.178711 102.934 -92.3813
258.544922 103.414 -93.4214
258.911133 103.918 -94.9600
259.277344 104.427 -97.0552
259.643555 104.918 -99.7246
260.009766 105.373 -102.9487
260.375977 105.775 -106.6829
260.742188 106.109 -110.8667
261.108398 106.364 -115.4316
261.474609 106.531 -120.3052
261.840820 106.602 -125.4126
262.207031 106.569 -130.6750
262.573242 106.426 -136.0073
262.939453 106.167 -141.3140
263.305664 105.785 -146.4839
263.671875 105.276 -151.3877
264.038086 104.637 -155.8733
264.404297 103.867 -159.7598
264.770508 102.970 -162.8328
265.136719 101.957 -164.8345
265.502930 100.848 -165.4541
265.869141 99.685 -164.3301
266.235352 98.545 -161.1030
266.601562 97.553 -155.5898
266.967773 96.872 -148.1067
267.333984 96.630 -139.7012
267.700195 96.832 -131.8140
268.066406 97.356 -125.5117
268.432617 98.046 -121.1289
268.798828 98.780 -118.4939
269.165039 99.489 -117.2632
269.531250 100.137 -117.1030
269.897461 100.711 -117.7441
270.263672 101.203 -118.9768
270.629883 101.614 -120.6375
270.996094 101.945 -122.5947
271.362305 102.200 -124.7422
271.728516 102.384 -126.9944
272.094727 102.501 -129.2822
272.460938 102.557 -131.5518
272.827148 102.556 -133.7573
273.193359 102.501 -135.8574
273.559570 102.394 -137.8086
273.925781 102.238 -139.5610
274.291992 102.036 -141.0554
274.658203 101.794 -142.2231
275.024414 101.519 -142.9902
275.390625 101.226 -143.2861
275.756836 100.932 -143.0591
276.123047 100.659 -142.2952
276.489258 100.433 -141.0381
276.855469 100.277 -139.3979
277.221680 100.204 -137.5410
277.587891 100.219 -135.6626
277.954102 100.312 -133.9443
278.320312 100.468 -132.5229
278.686523 100.664 -131.4741
279.052734 100.880 -130.8174
279.418945 101.095 -130.5286
279.785156 101.297 -130.5537
280.151367 101.473 -130.8232
280.517578 101.618 -131.2588
280.883789 101.729 -131.7798
281.250000 101.806 -132.3062
281.616211 101.851 -132.7644
281.982422 101.872 -133.0911
282.348633 101.877 -133.2346
282.714844 101.877 -133.1604
283.081055 101.882 -132.8525
283.447266 101.908 -132.3186
283.813477 101.965 -131.5940
284.179688 102.067 -130.7466
284.545898 102.221 -129.8745
284.912109 102.430 -129.0979
285.278320 102.688 -128.5391
285.644531 102.984 -128.3020
286.010742 103.302 -128.4551
286.376953 103.621 -129.0210
286.743164 103.923 -129.9795
287.109375 104.193 -131.2715
287.475586 104.419 -132.8120
287.841797 104.594 -134.5010
288.208008 104.718 -136.2351
288.574219 104.794 -137.9209
288.940430 104.829 -139.4819
289.306641 104.833 -140.8672
289.672852 104.818 -142.0513
290.039062 104.794 -143.0347
290.405273 104.770 -143.8374
290.771484 104.750 -144.4917
291.137695 104.740 -145.0352
291.503906 104.740 -145.5005
291.870117 104.750 -145.9121
292.236328 104.769 -146.2842
292.602539 104.796 -146.6240
292.968750 104.832 -146.9404
293.334961 104.877 -147.2461
293.701172 104.931 -147.5552
294.067383 104.992 -147.8794
294.433594 105.058 -148.2183
294.799805 105.129 -148.5637
295.166016 105.206 -148.9072
295.532227 105.292 -149.2527
295.898438 105.390 -149.6240
296.264648 105.501 -150.0610
296.630859 105.622 -150.6060
296.997070 105.746 -151.2876
297.363281 105.867 -152.1157
297.729492 105.978 -153.0820
298.095703 106.072 -154.1680
298.461914 106.145 -155.3496
298.828125 106.190 -156.5952
299.194336 106.203 -157.8591
299.560547 106.180 -159.0771
299.926758 106.120 -160.1660
