* Measurement data measured by REW V5.20.8
* Source: ASIO hdspfire, Analog 1 (1)
* Format: 4M Log Swept Sine, 1 sweep at -12.0 dBFS with no timing reference
* Dated: 13 juin 2022 13:58:51
* REW Settings:
*  C-weighting compensation: Off
*  Target level: 75.0 dB
* Note: ; 
* Measurement: on_0x1400_1_2 juin 13
* Smoothing: None
* Frequency Step: 0.36621094 Hz
* Start Frequency: 0.36621094 Hz
*
* Freq(Hz) SPL(dB) Phase(degrees)
0.366211 11.750 -137.4742
0.732422 14.552 -131.9048
1.098633 13.620 -133.8686
1.464844 6.000 -111.0824
1.831055 13.130 -18.6179
2.197266 19.922 -23.5749
2.563477 21.976 -38.5438
2.929688 19.833 -55.6913
3.295898 -0.389 -49.8539
3.662109 21.916 81.7034
4.028320 28.243 64.2120
4.394531 30.656 48.7147
4.760742 30.722 41.0926
5.126953 30.358 52.9510
5.493164 33.797 69.6014
5.859375 38.344 64.0694
6.225586 41.714 46.4505
6.591797 44.008 24.2635
6.958008 45.528 0.8642
7.324219 46.525 -21.3079
7.690430 47.251 -40.0165
8.056641 48.050 -53.8221
8.422852 49.299 -63.6910
8.789062 51.022 -72.8536
9.155273 52.799 -83.2591
9.521484 54.212 -94.0032
9.887695 55.126 -102.5305
10.253906 55.817 -105.9300
10.620117 57.060 -104.0454
10.986328 59.318 -102.8349
11.352539 61.942 -107.3006
11.718750 64.193 -116.5343
12.084961 65.775 -127.8094
12.451172 66.633 -138.5656
12.817383 66.850 -146.1250
13.183594 66.814 -147.5348
13.549805 67.439 -142.5067
13.916016 69.335 -137.9275
14.282227 71.786 -139.8196
14.648438 73.990 -147.3055
15.014648 75.670 -157.7845
15.380859 76.789 -169.3401
15.747070 77.379 179.3948
16.113281 77.498 169.6480
16.479492 77.270 162.7572
16.845703 76.976 159.9168
17.211914 77.085 160.7470
17.578125 77.909 161.9143
17.944336 79.191 159.8164
18.310547 80.439 153.8044
18.676758 81.342 145.1627
19.042969 81.773 135.5107
19.409180 81.710 126.4093
19.775391 81.216 119.4459
20.141602 80.490 116.1243
20.507812 79.914 116.9173
20.874023 79.839 119.9030
21.240234 80.193 122.1423
21.606445 80.619 122.9352
21.972656 80.928 123.7793
22.338867 81.255 126.2304
22.705078 81.897 130.0413
23.071289 82.953 133.1322
23.437500 84.202 134.0504
23.803711 85.384 133.2512
24.169922 86.444 132.0015
24.536133 87.500 131.0885
24.902344 88.702 130.2104
25.268555 90.081 128.3297
25.634766 91.531 124.6900
26.000977 92.912 119.3182
26.367188 94.139 112.7328
26.733398 95.197 105.5113
27.099609 96.109 98.0569
27.465820 96.911 90.5512
27.832031 97.628 83.0232
28.198242 98.270 75.4679
28.564453 98.837 67.9377
28.930664 99.336 60.5477
29.296875 99.788 53.4056
29.663086 100.225 46.5164
30.029297 100.673 39.7415
30.395508 101.136 32.8609
30.761719 101.592 25.7069
31.127930 102.008 18.2662
31.494141 102.357 10.6855
31.860352 102.637 3.1924
32.226562 102.864 -4.0120
32.592773 103.065 -10.8400
32.958984 103.264 -17.3434
33.325195 103.479 -23.6595
33.691406 103.702 -29.9112
34.057617 103.918 -36.1300
34.423828 104.114 -42.2532
34.790039 104.290 -48.1806
35.156250 104.456 -53.8441
35.522461 104.626 -59.2460
35.888672 104.809 -64.4487
36.254883 105.007 -69.5333
36.621094 105.212 -74.5593
36.987305 105.418 -79.5533
37.353516 105.615 -84.5178
37.719727 105.799 -89.4404
38.085938 105.963 -94.2894
38.452148 106.102 -99.0066
38.818359 106.221 -103.5135
39.184570 106.332 -107.7444
39.550781 106.453 -111.6929
39.916992 106.604 -115.4434
40.283203 106.794 -119.1522
40.649414 107.013 -122.9811
41.015625 107.242 -127.0236
41.381836 107.457 -131.2725
41.748047 107.641 -135.6390
42.114258 107.790 -140.0019
42.480469 107.908 -144.2533
42.846680 108.009 -148.3289
43.212891 108.108 -152.2156
43.579102 108.216 -155.9446
43.945312 108.339 -159.5756
44.311523 108.477 -163.1783
44.677734 108.630 -166.8143
45.043945 108.792 -170.5227
45.410156 108.957 -174.3164
45.776367 109.122 -178.1917
46.142578 109.285 177.8541
46.508789 109.446 173.8074
46.875000 109.603 169.6399
47.241211 109.750 165.3251
47.607422 109.880 160.8590
47.973633 109.984 156.2678
48.339844 110.059 151.5955
48.706055 110.107 146.8768
49.072266 110.132 142.1143
49.438477 110.136 137.2744
49.804688 110.113 132.3101
50.170898 110.053 127.1959
50.537109 109.940 121.9556
50.903320 109.764 116.6641
51.269531 109.519 111.4277
51.635742 109.209 106.3500
52.001953 108.844 101.5024
52.368164 108.433 96.9108
52.734375 107.986 92.5641
53.100586 107.505 88.4409
53.466797 106.989 84.5358
53.833008 106.434 80.8739
54.199219 105.841 77.5054
54.565430 105.214 74.4929
54.931641 104.563 71.8965
55.297852 103.900 69.7633
55.664062 103.246 68.1121
56.030273 102.622 66.9061
56.396484 102.051 66.0218
56.762695 101.546 65.2452
57.128906 101.100 64.3244
57.495117 100.683 63.0611
57.861328 100.257 61.3810
58.227539 99.787 59.3383
58.593750 99.243 57.0627
58.959961 98.608 54.6940
59.326172 97.868 52.3411
59.692383 97.002 50.0934
60.058594 95.978 48.0816
60.424805 94.746 46.5775
60.791016 93.248 46.1235
61.157227 91.431 47.7236
61.523438 89.299 53.1655
61.889648 87.095 65.2630
62.255859 85.667 85.7723
62.622070 86.019 108.7280
62.988281 87.661 125.2750
63.354492 89.575 134.7065
63.720703 91.352 139.5087
64.086914 92.910 141.4610
64.453125 94.244 141.6005
64.819336 95.367 140.6050
65.185547 96.306 138.9689
65.551758 97.094 137.0463
65.917969 97.768 135.0513
66.284180 98.366 133.0624
66.650391 98.914 131.0563
67.016602 99.427 128.9669
67.382812 99.904 126.7446
67.749023 100.345 124.3842
68.115234 100.746 121.9165
68.481445 101.110 119.3796
68.847656 101.442 116.7948
69.213867 101.746 114.1613
69.580078 102.023 111.4696
69.946289 102.271 108.7190
70.312500 102.488 105.9257
70.678711 102.673 103.1195
71.044922 102.828 100.3329
71.411133 102.956 97.5917
71.777344 103.061 94.9117
72.143555 103.148 92.2984
72.509766 103.220 89.7482
72.875977 103.281 87.2485
73.242188 103.331 84.7799
73.608398 103.370 82.3237
73.974609 103.397 79.8732
74.340820 103.408 77.4399
74.707031 103.404 75.0485
75.073242 103.389 72.7214
75.439453 103.366 70.4622
75.805664 103.340 68.2506
76.171875 103.311 66.0554
76.538086 103.275 63.8557
76.904297 103.228 61.6554
77.270508 103.170 59.4762
77.636719 103.106 57.3344
78.002930 103.040 55.2164
78.369141 102.976 53.0766
78.735352 102.908 50.8608
79.101562 102.826 48.5435
79.467773 102.717 46.1534
79.833984 102.573 43.7707
80.200195 102.394 41.4950
80.566406 102.192 39.4028
80.932617 101.981 37.5117
81.298828 101.778 35.7722
81.665039 101.586 34.0901
82.031250 101.403 32.3683
82.397461 101.218 30.5432
82.763672 101.018 28.5981
83.129883 100.790 26.5557
83.496094 100.526 24.4590
83.862305 100.220 22.3555
84.228516 99.867 20.2899
84.594727 99.463 18.3038
84.960938 99.004 16.4435
85.327148 98.481 14.7740
85.693359 97.885 13.3975
86.059570 97.212 12.4704
86.425781 96.463 12.2073
86.791992 95.655 12.8572
87.158203 94.828 14.6397
87.524414 94.038 17.6481
87.890625 93.344 21.7755
88.256836 92.785 26.7512
88.623047 92.371 32.3020
88.989258 92.098 38.2965
89.355469 91.977 44.7167
89.721680 92.045 51.4709
90.087891 92.343 58.2230
90.454102 92.880 64.4183
90.820312 93.612 69.5112
91.186523 94.462 73.1888
91.552734 95.347 75.4316
91.918945 96.199 76.4379
92.285156 96.979 76.5154
92.651367 97.674 75.9878
93.017578 98.289 75.1249
93.383789 98.845 74.0964
93.750000 99.362 72.9612
94.116211 99.853 71.6996
94.482422 100.322 70.2739
94.848633 100.763 68.6815
95.214844 101.172 66.9681
95.581055 101.552 65.1984
95.947266 101.913 63.4102
96.313477 102.263 61.5867
96.679688 102.609 59.6672
97.045898 102.946 57.5879
97.412109 103.264 55.3244
97.778320 103.553 52.9070
98.144531 103.807 50.4030
98.510742 104.029 47.8830
98.876953 104.224 45.3916
99.243164 104.401 42.9370
99.609375 104.565 40.5005
99.975586 104.718 38.0562
100.341797 104.857 35.5868
100.708008 104.980 33.0891
101.074219 105.088 30.5692
101.440430 105.176 28.0381
101.806641 105.245 25.5110
102.172852 105.291 23.0103
102.539062 105.317 20.5671
102.905273 105.324 18.2155
103.271484 105.317 15.9817
103.637695 105.304 13.8707
104.003906 105.292 11.8621
104.370117 105.284 9.9172
104.736328 105.281 7.9963
105.102539 105.279 6.0745
105.468750 105.275 4.1477
105.834961 105.268 2.2243
106.201172 105.257 0.3120
106.567383 105.244 -1.5930
106.933594 105.228 -3.5043
107.299805 105.209 -5.4351
107.666016 105.181 -7.3855
108.032227 105.143 -9.3379
108.398438 105.093 -11.2629
108.764648 105.033 -13.1320
109.130859 104.967 -14.9276
109.497070 104.899 -16.6482
109.863281 104.834 -18.3057
110.229492 104.773 -19.9210
110.595703 104.718 -21.5201
110.961914 104.667 -23.1308
111.328125 104.619 -24.7775
111.694336 104.570 -26.4731
112.060547 104.513 -28.2114
112.426758 104.447 -29.9675
112.792969 104.370 -31.7082
113.159180 104.285 -33.4074
113.525391 104.198 -35.0584
113.891602 104.111 -36.6738
114.257812 104.024 -38.2748
114.624023 103.936 -39.8763
114.990234 103.844 -41.4788
115.356445 103.747 -43.0718
115.722656 103.644 -44.6439
116.088867 103.539 -46.1911
116.455078 103.429 -47.7157
116.821289 103.317 -49.2200
117.187500 103.199 -50.6994
117.553711 103.076 -52.1418
117.919922 102.948 -53.5322
118.286133 102.818 -54.8591
118.652344 102.687 -56.1176
119.018555 102.559 -57.3082
119.384766 102.435 -58.4349
119.750977 102.321 -59.5070
120.117188 102.217 -60.5424
120.483398 102.126 -61.5691
120.849609 102.049 -62.6209
121.215820 101.981 -63.7276
121.582031 101.920 -64.9044
121.948242 101.859 -66.1476
122.314453 101.796 -67.4387
122.680664 101.730 -68.7536
123.046875 101.663 -70.0746
123.413086 101.598 -71.3979
123.779297 101.540 -72.7363
124.145508 101.489 -74.1161
124.511719 101.445 -75.5690
124.877930 101.406 -77.1230
125.244141 101.366 -78.7951
125.610352 101.320 -80.5862
125.976562 101.263 -82.4835
126.342773 101.193 -84.4651
126.708984 101.108 -86.5066
127.075195 101.009 -88.5865
127.441406 100.895 -90.6898
127.807617 100.770 -92.8095
128.173828 100.634 -94.9460
128.540039 100.487 -97.1038
128.906250 100.329 -99.2878
129.272461 100.159 -101.4973
129.638672 99.973 -103.7225
130.004883 99.772 -105.9450
130.371094 99.556 -108.1428
130.737305 99.329 -110.2996
131.103516 99.094 -112.4146
131.469727 98.857 -114.5045
131.835938 98.619 -116.6006
132.202148 98.378 -118.7374
132.568359 98.132 -120.9413
132.934570 97.876 -123.2225
133.300781 97.604 -125.5748
133.666992 97.314 -127.9795
134.033203 97.003 -130.4124
134.399414 96.673 -132.8512
134.765625 96.325 -135.2800
135.131836 95.962 -137.6942
135.498047 95.588 -140.1013
135.864258 95.203 -142.5190
136.230469 94.809 -144.9709
136.596680 94.405 -147.4812
136.962891 93.989 -150.0714
137.329102 93.557 -152.7627
137.695312 93.108 -155.5771
138.061523 92.634 -158.5364
138.427734 92.128 -161.6511
138.793945 91.580 -164.9050
139.160156 90.980 -168.2415
139.526367 90.325 -171.5626
139.892578 89.619 -174.7488
140.258789 88.877 -177.6968
140.625000 88.128 179.6333
140.991211 87.400 177.1855
141.357422 86.715 174.8147
141.723633 86.084 172.3431
142.089844 85.505 169.6339
142.456055 84.974 166.6366
142.822266 84.493 163.3770
143.188477 84.081 159.9077
143.554688 83.764 156.2545
143.920898 83.573 152.3892
144.287109 83.530 148.2461
144.653320 83.643 143.7695
145.019531 83.906 138.9548
145.385742 84.305 133.8579
145.751953 84.823 128.5712
146.118164 85.441 123.1875
146.484375 86.139 117.7722
146.850586 86.896 112.3582
147.216797 87.692 106.9583
147.583008 88.504 101.5833
147.949219 89.313 96.2535
148.315430 90.106 90.9977
148.681641 90.876 85.8418
149.047852 91.617 80.7976
149.414062 92.329 75.8577
149.780273 93.010 71.0010
150.146484 93.657 66.2048
150.512695 94.266 61.4590
150.878906 94.834 56.7695
151.245117 95.360 52.1555
151.611328 95.844 47.6389
151.977539 96.289 43.2355
152.343750 96.700 38.9495
152.709961 97.080 34.7754
153.076172 97.433 30.7036
153.442383 97.759 26.7231
153.808594 98.061 22.8246
154.174805 98.339 18.9996
154.541016 98.593 15.2419
154.907227 98.823 11.5497
155.273438 99.030 7.9264
155.639648 99.214 4.3812
156.005859 99.377 0.9238
156.372070 99.522 -2.4420
156.738281 99.652 -5.7231
157.104492 99.769 -8.9360
157.470703 99.874 -12.1010
157.836914 99.966 -15.2351
158.203125 100.043 -18.3490
158.569336 100.102 -21.4453
158.935547 100.140 -24.5197
159.301758 100.155 -27.5592
159.667969 100.142 -30.5381
160.034180 100.103 -33.4149
160.400391 100.037 -36.1383
160.766602 99.952 -38.6606
161.132812 99.857 -40.9590
161.499023 99.765 -43.0476
161.865234 99.682 -44.9757
162.231445 99.612 -46.8055
162.597656 99.551 -48.5822
162.963867 99.494 -50.3160
163.330078 99.439 -51.9875
163.696289 99.389 -53.5718
164.062500 99.351 -55.0660
164.428711 99.334 -56.5038
164.794922 99.340 -57.9485
165.161133 99.369 -59.4716
165.527344 99.414 -61.1301
165.893555 99.469 -62.9569
166.259766 99.524 -64.9624
166.625977 99.573 -67.1428
166.992188 99.611 -69.4872
167.358398 99.633 -71.9797
167.724609 99.634 -74.6010
168.090820 99.613 -77.3286
168.457031 99.567 -80.1404
168.823242 99.496 -83.0162
169.189453 99.399 -85.9403
169.555664 99.277 -88.9003
169.921875 99.129 -91.8887
170.288086 98.957 -94.9011
170.654297 98.758 -97.9377
171.020508 98.533 -101.0009
171.386719 98.278 -104.0908
171.752930 97.992 -107.2021
172.119141 97.669 -110.3198
172.485352 97.309 -113.4194
172.851562 96.910 -116.4713
173.217773 96.472 -119.4464
173.583984 95.998 -122.3217
173.950195 95.491 -125.0840
174.316406 94.954 -127.7325
174.682617 94.392 -130.2815
175.048828 93.805 -132.7622
175.415039 93.197 -135.2239
175.781250 92.562 -137.7314
176.147461 91.895 -140.3562
176.513672 91.185 -143.1674
176.879883 90.415 -146.2278
177.246094 89.572 -149.6017
177.612305 88.637 -153.3750
177.978516 87.594 -157.6896
178.344727 86.421 -162.7887
178.710938 85.098 -169.0869
179.077148 83.606 -177.2822
179.443359 81.967 171.4647
179.809570 80.345 155.4454
180.175781 79.239 133.4396
180.541992 79.361 108.1759
180.908203 80.711 86.0275
181.274414 82.582 69.7173
181.640625 84.472 58.0012
182.006836 86.212 49.1494
182.373047 87.773 41.9972
182.739258 89.168 35.8602
183.105469 90.417 30.3428
183.471680 91.540 25.2114
183.837891 92.553 20.3206
184.204102 93.470 15.5713
184.570312 94.301 10.8901
184.936523 95.052 6.2217
185.302734 95.728 1.5267
185.668945 96.326 -3.2155
186.035156 96.847 -8.0061
186.401367 97.287 -12.8247
186.767578 97.644 -17.6285
187.133789 97.916 -22.3555
187.500000 98.104 -26.9283
187.866211 98.215 -31.2650
188.232422 98.258 -35.2900
188.598633 98.245 -38.9476
188.964844 98.192 -42.2090
189.331055 98.111 -45.0734
189.697266 98.014 -47.5586
190.063477 97.911 -49.6904
190.429688 97.810 -51.4939
190.795898 97.719 -52.9962
191.162109 97.646 -54.2328
191.528320 97.598 -55.2549
191.894531 97.581 -56.1279
192.260742 97.598 -56.9232
192.626953 97.646 -57.7084
192.993164 97.724 -58.5443
193.359375 97.829 -59.4868
193.725586 97.955 -60.5883
194.091797 98.094 -61.8931
194.458008 98.238 -63.4310
194.824219 98.375 -65.2123
195.190430 98.497 -67.2269
195.556641 98.594 -69.4509
195.922852 98.660 -71.8513
196.289062 98.689 -74.3893
196.655273 98.677 -77.0217
197.021484 98.621 -79.7004
197.387695 98.518 -82.3738
197.753906 98.368 -84.9886
198.120117 98.171 -87.4916
198.486328 97.930 -89.8290
198.852539 97.647 -91.9456
199.218750 97.327 -93.7845
199.584961 96.979 -95.2914
199.951172 96.612 -96.4205
200.317383 96.238 -97.1447
200.683594 95.873 -97.4606
201.049805 95.531 -97.3910
201.416016 95.223 -96.9824
201.782227 94.963 -96.3043
202.148438 94.759 -95.4489
202.514648 94.616 -94.5299
202.880859 94.536 -93.6726
203.247070 94.510 -92.9994
203.613281 94.527 -92.6140
203.979492 94.572 -92.5907
204.345703 94.626 -92.9697
204.711914 94.669 -93.7563
205.078125 94.686 -94.9225
205.444336 94.660 -96.4142
205.810547 94.581 -98.1620
206.176758 94.439 -100.0940
206.542969 94.227 -102.1437
206.909180 93.938 -104.2487
207.275391 93.562 -106.3379
207.641602 93.088 -108.3118
208.007812 92.502 -110.0233
208.374023 91.796 -111.2653
208.740234 90.968 -111.7655
209.106445 90.030 -111.1918
209.472656 89.014 -109.1674
209.838867 87.982 -105.3181
210.205078 87.037 -99.3921
210.571289 86.321 -91.4941
210.937500 85.966 -82.3293
211.303711 86.027 -73.1089
211.669922 86.431 -64.9700
212.036133 87.044 -58.4647
212.402344 87.739 -53.5729
212.768555 88.440 -50.0018
213.134766 89.109 -47.4263
213.500977 89.733 -45.5879
213.867188 90.306 -44.3043
214.233398 90.827 -43.4414
214.599609 91.295 -42.8856
214.965820 91.713 -42.5314
215.332031 92.083 -42.2848
215.698242 92.413 -42.0715
216.064453 92.710 -41.8392
216.430664 92.979 -41.5496
216.796875 93.228 -41.1648
217.163086 93.464 -40.6434
217.529297 93.696 -39.9492
217.895508 93.941 -39.0747
218.261719 94.212 -38.0590
218.627930 94.519 -36.9845
218.994141 94.866 -35.9487
219.360352 95.248 -35.0292
219.726562 95.659 -34.2679
220.092773 96.095 -33.6858
220.458984 96.554 -33.3074
220.825195 97.035 -33.1772
221.191406 97.531 -33.3488
221.557617 98.030 -33.8577
221.923828 98.521 -34.7006
222.290039 98.991 -35.8359
222.656250 99.436 -37.2054
223.022461 99.856 -38.7610
223.388672 100.251 -40.4791
223.754883 100.622 -42.3566
224.121094 100.966 -44.3912
224.487305 101.278 -46.5636
224.853516 101.553 -48.8308
225.219727 101.792 -51.1390
225.585938 101.999 -53.4435
225.952148 102.180 -55.7258
226.318359 102.339 -57.9962
226.684570 102.477 -60.2778
227.050781 102.591 -62.5856
227.416992 102.676 -64.9094
227.783203 102.727 -67.2133
228.149414 102.745 -69.4463
228.515625 102.731 -71.5593
228.881836 102.691 -73.5164
229.248047 102.630 -75.2970
229.614258 102.557 -76.8938
229.980469 102.475 -78.3099
230.346680 102.392 -79.5592
230.712891 102.311 -80.6680
231.079102 102.235 -81.6731
231.445312 102.162 -82.6130
231.811523 102.090 -83.5151
232.177734 102.012 -84.3879
232.543945 101.925 -85.2209
232.910156 101.825 -85.9921
233.276367 101.710 -86.6729
233.642578 101.578 -87.2296
234.008789 101.429 -87.6191
234.375000 101.265 -87.7865
234.741211 101.091 -87.6715
235.107422 100.917 -87.2223
235.473633 100.757 -86.4150
235.839844 100.627 -85.2671
236.206055 100.541 -83.8376
236.572266 100.504 -82.2134
236.938477 100.519 -80.4816
237.304688 100.580 -78.7046
237.670898 100.681 -76.9028
238.037109 100.817 -75.0555
238.403320 100.992 -73.1219
238.769531 101.216 -71.0764
239.135742 101.506 -68.9471
239.501953 101.879 -66.8373
239.868164 102.344 -64.9159
240.234375 102.895 -63.3765
240.600586 103.515 -62.3864
240.966797 104.180 -62.0500
241.333008 104.861 -62.4000
241.699219 105.535 -63.4069
242.065430 106.180 -64.9996
242.431641 106.783 -67.0846
242.797852 107.337 -69.5629
243.164062 107.837 -72.3419
243.530273 108.284 -75.3433
243.896484 108.681 -78.5063
244.262695 109.031 -81.7859
244.628906 109.335 -85.1497
244.995117 109.598 -88.5739
245.361328 109.820 -92.0404
245.727539 110.003 -95.5342
246.093750 110.148 -99.0427
246.459961 110.255 -102.5533
246.826172 110.323 -106.0509
247.192383 110.351 -109.5137
247.558594 110.338 -112.9109
247.924805 110.283 -116.2026
248.291016 110.189 -119.3427
248.657227 110.060 -122.2839
249.023438 109.902 -124.9863
249.389648 109.723 -127.4225
249.755859 109.533 -129.5826
250.122070 109.339 -131.4739
250.488281 109.150 -133.1173
250.854492 108.971 -134.5425
251.220703 108.806 -135.7823
251.586914 108.658 -136.8689
251.953125 108.528 -137.8317
252.319336 108.416 -138.6952
252.685547 108.323 -139.4797
253.051758 108.248 -140.2009
253.417969 108.192 -140.8717
253.784180 108.155 -141.5051
254.150391 108.137 -142.1166
254.516602 108.139 -142.7236
254.882812 108.161 -143.3442
255.249023 108.202 -143.9933
255.615234 108.260 -144.6824
255.981445 108.337 -145.4197
256.347656 108.431 -146.2152
256.713867 108.546 -147.0845
257.080078 108.681 -148.0525
257.446289 108.838 -149.1533
257.812500 109.015 -150.4286
258.178711 109.210 -151.9230
258.544922 109.419 -153.6798
258.911133 109.634 -155.7363
259.277344 109.847 -158.1204
259.643555 110.050 -160.8477
260.009766 110.233 -163.9207
260.375977 110.388 -167.3291
260.742188 110.504 -171.0516
261.108398 110.573 -175.0581
261.474609 110.590 -179.3129
261.840820 110.547 176.2249
262.207031 110.439 171.6003
262.573242 110.262 166.8638
262.939453 110.011 162.0712
263.305664 109.683 157.2844
263.671875 109.279 152.5685
264.038086 108.798 147.9893
264.404297 108.244 143.6068
264.770508 107.622 139.4708
265.136719 106.939 135.6149
265.502930 106.200 132.0529
265.869141 105.410 128.7767
266.235352 104.571 125.7584
266.601562 103.683 122.9531
266.967773 102.737 120.3070
267.333984 101.719 117.7651
267.700195 100.605 115.2815
268.066406 99.360 112.8234
268.432617 97.935 110.3727
268.798828 96.250 107.9238
269.165039 94.171 105.4845
269.531250 91.436 103.1030
269.897461 87.399 101.0114
270.263672 79.534 101.0352
270.629883 73.533 -97.4620
270.996094 85.532 -93.1637
271.362305 90.404 -95.5774
271.728516 93.491 -98.7701
272.094727 95.736 -102.2556
272.460938 97.483 -105.9016
272.827148 98.896 -109.6615
273.193359 100.068 -113.5220
273.559570 101.051 -117.4800
273.925781 101.877 -121.5304
274.291992 102.567 -125.6586
274.658203 103.135 -129.8389
275.024414 103.588 -134.0366
275.390625 103.936 -138.2115
275.756836 104.183 -142.3199
276.123047 104.334 -146.3170
276.489258 104.393 -150.1566
276.855469 104.365 -153.7917
277.221680 104.252 -157.1736
277.587891 104.056 -160.2480
277.954102 103.778 -162.9506
278.320312 103.420 -165.1963
278.686523 102.982 -166.8702
279.052734 102.469 -167.8173
279.418945 101.893 -167.8375
279.785156 101.280 -166.6964
280.151367 100.676 -164.1622
280.517578 100.155 -160.0940
280.883789 99.812 -154.5842
281.250000 99.741 -148.0930
281.616211 99.990 -141.4104
281.982422 100.532 -135.3730
282.348633 101.288 -130.5421
282.714844 102.166 -127.1063
283.081055 103.090 -124.9911
283.447266 104.014 -124.0104
283.813477 104.907 -123.9640
284.179688 105.757 -124.6781
284.545898 106.556 -126.0137
284.912109 107.300 -127.8607
285.278320 107.986 -130.1305
285.644531 108.615 -132.7485
286.010742 109.184 -135.6497
286.376953 109.694 -138.7744
286.743164 110.145 -142.0659
287.109375 110.538 -145.4684
287.475586 110.874 -148.9276
287.841797 111.157 -152.3925
288.208008 111.390 -155.8175
288.574219 111.580 -159.1664
288.940430 111.732 -162.4117
289.306641 111.851 -165.5349
289.672852 111.943 -168.5223
290.039062 112.012 -171.3645
290.405273 112.063 -174.0547
290.771484 112.103 -176.5924
291.137695 112.138 -178.9850
291.503906 112.171 178.7501
291.870117 112.207 176.5886
292.236328 112.250 174.5028
292.602539 112.299 172.4669
292.968750 112.357 170.4572
293.334961 112.422 168.4497
293.701172 112.497 166.4164
294.067383 112.579 164.3251
294.433594 112.666 162.1431
294.799805 112.753 159.8451
295.166016 112.835 157.4200
295.532227 112.905 154.8726
295.898438 112.958 152.2196
296.264648 112.993 149.4835
296.630859 113.006 146.6843
296.997070 112.998 143.8385
297.363281 112.967 140.9586
297.729492 112.912 138.0576
298.095703 112.833 135.1516
298.461914 112.727 132.2595
298.828125 112.596 129.4010
299.194336 112.440 126.5931
299.560547 112.261 123.8473
299.926758 112.058 121.1699
