* Measurement data measured by REW V5.20.8
* Source: ASIO hdspfire, Analog 1 (1)
* Format: 4M Log Swept Sine, 1 sweep at -12.0 dBFS with no timing reference
* Dated: 13 juin 2022 13:34:05
* REW Settings:
*  C-weighting compensation: Off
*  Target level: 75.0 dB
* Note: ; 
* Measurement: off_0x1400_0_0 juin 13
* Smoothing: None
* Frequency Step: 0.36621094 Hz
* Start Frequency: 0.36621094 Hz
*
* Freq(Hz) SPL(dB) Phase(degrees)
0.366211 23.315 163.5096
0.732422 14.887 144.4861
1.098633 16.104 -43.2892
1.464844 24.637 -62.5959
1.831055 27.107 -80.8244
2.197266 26.252 -101.9292
2.563477 20.646 -139.6384
2.929688 21.482 97.2039
3.295898 29.943 57.1514
3.662109 33.875 35.0557
4.028320 35.439 16.6802
4.394531 35.114 1.7980
4.760742 32.954 -4.0235
5.126953 30.922 14.6857
5.493164 34.208 33.2142
5.859375 38.137 23.7413
6.225586 40.765 2.8130
6.591797 42.403 -21.0154
6.958008 43.265 -42.4782
7.324219 43.533 -55.9135
7.690430 44.233 -56.1700
8.056641 47.055 -51.6103
8.422852 50.923 -56.6527
8.789062 54.193 -69.7220
9.155273 56.452 -86.0538
9.521484 57.658 -102.6206
9.887695 57.804 -116.7025
10.253906 56.998 -123.9625
10.620117 56.252 -118.1311
10.986328 57.845 -105.8921
11.352539 60.904 -105.3424
11.718750 63.409 -114.6807
12.084961 64.894 -127.5722
12.451172 65.349 -139.7915
12.817383 64.897 -146.9925
13.183594 64.271 -143.4535
13.549805 65.438 -131.4510
13.916016 68.443 -127.4010
14.282227 71.381 -133.9375
14.648438 73.576 -145.7512
15.014648 74.993 -159.4402
15.380859 75.686 -173.0705
15.747070 75.702 174.9189
16.113281 75.115 166.4606
16.479492 74.204 164.2737
16.845703 73.802 169.8752
17.211914 74.830 177.4113
17.578125 76.761 178.6191
17.944336 78.580 173.1687
18.310547 79.861 163.9436
18.676758 80.502 153.2773
19.042969 80.483 142.9481
19.409180 79.809 134.7914
19.775391 78.568 131.3152
20.141602 77.183 135.7476
20.507812 76.697 148.4278
20.874023 77.779 161.7042
21.240234 79.700 169.5804
21.606445 81.794 172.8687
21.972656 83.895 172.9693
22.338867 85.920 170.3292
22.705078 87.747 165.4108
23.071289 89.285 159.0925
23.437500 90.520 152.4781
23.803711 91.510 146.5991
24.169922 92.417 142.0594
24.536133 93.433 138.6265
24.902344 94.666 135.2090
25.268555 96.069 130.6156
25.634766 97.499 124.3489
26.000977 98.835 116.6156
26.367188 100.018 107.9033
26.733398 101.040 98.6613
27.099609 101.917 89.1827
27.465820 102.672 79.6124
27.832031 103.318 70.0149
28.198242 103.861 60.4498
28.564453 104.305 51.0134
28.930664 104.663 41.8264
29.296875 104.957 32.9799
29.663086 105.216 24.4753
30.029297 105.463 16.2039
30.395508 105.702 7.9978
30.761719 105.921 -0.2700
31.127930 106.094 -8.6056
31.494141 106.205 -16.8865
31.860352 106.254 -24.9227
32.226562 106.262 -32.5513
32.592773 106.253 -39.7175
32.958984 106.255 -46.4991
33.325195 106.282 -53.0514
33.691406 106.326 -59.5078
34.057617 106.374 -65.9122
34.423828 106.413 -72.2256
34.790039 106.443 -78.3868
35.156250 106.470 -84.3696
35.522461 106.497 -90.1937
35.888672 106.525 -95.8920
36.254883 106.549 -101.4745
36.621094 106.568 -106.9298
36.987305 106.586 -112.2651
37.353516 106.604 -117.5414
37.719727 106.616 -122.8536
38.085938 106.598 -128.2528
38.452148 106.521 -133.6621
38.818359 106.366 -138.8510
39.184570 106.141 -143.4993
39.550781 105.893 -147.3463
39.916992 105.694 -150.3851
40.283203 105.607 -152.9775
40.649414 105.644 -155.7207
41.015625 105.750 -159.1086
41.381836 105.841 -163.2814
41.748047 105.843 -168.0337
42.114258 105.715 -172.9698
42.480469 105.452 -177.6545
42.846680 105.081 178.2842
43.212891 104.651 175.0834
43.579102 104.213 172.7960
43.945312 103.814 171.2854
44.311523 103.472 170.2998
44.677734 103.183 169.6146
45.043945 102.920 169.1657
45.410156 102.664 169.0874
45.776367 102.423 169.6264
46.142578 102.241 170.9648
46.508789 102.185 173.0342
46.875000 102.303 175.4684
47.241211 102.598 177.7866
47.607422 103.037 179.6535
47.973633 103.580 -179.0386
48.339844 104.206 -178.2938
48.706055 104.907 -178.1613
49.072266 105.672 -178.7674
49.438477 106.472 179.7605
49.804688 107.273 177.3788
50.170898 108.038 174.1485
50.537109 108.741 170.1978
50.903320 109.366 165.6749
51.269531 109.904 160.7197
51.635742 110.350 155.4591
52.001953 110.704 150.0132
52.368164 110.966 144.4988
52.734375 111.144 139.0247
53.100586 111.246 133.6776
53.466797 111.287 128.5098
53.833008 111.278 123.5334
54.199219 111.229 118.7317
54.565430 111.144 114.0802
54.931641 111.023 109.5682
55.297852 110.866 105.2071
55.664062 110.676 101.0223
56.030273 110.456 97.0372
56.396484 110.212 93.2593
56.762695 109.950 89.6813
57.128906 109.672 86.2931
57.495117 109.379 83.0952
57.861328 109.072 80.1013
58.227539 108.759 77.3258
58.593750 108.444 74.7673
58.959961 108.131 72.4039
59.326172 107.821 70.2065
59.692383 107.511 68.1631
60.058594 107.201 66.2916
60.424805 106.896 64.6280
60.791016 106.605 63.1916
61.157227 106.342 61.9535
61.523438 106.114 60.8329
61.889648 105.921 59.7296
62.255859 105.752 58.5671
62.622070 105.601 57.3152
62.988281 105.459 55.9772
63.354492 105.324 54.5600
63.720703 105.194 53.0561
64.086914 105.064 51.4521
64.453125 104.927 49.7524
64.819336 104.777 47.9905
65.185547 104.615 46.2141
65.551758 104.446 44.4484
65.917969 104.276 42.6683
66.284180 104.104 40.8032
66.650391 103.921 38.7822
67.016602 103.707 36.5898
67.382812 103.442 34.2968
67.749023 103.114 32.0476
68.115234 102.725 30.0123
68.481445 102.287 28.3287
68.847656 101.822 27.0599
69.213867 101.347 26.1908
69.580078 100.872 25.6683
69.946289 100.395 25.4607
70.312500 99.913 25.5938
70.678711 99.431 26.1418
71.044922 98.961 27.1801
71.411133 98.526 28.7374
71.777344 98.147 30.7750
72.143555 97.846 33.1967
72.509766 97.636 35.8676
72.875977 97.525 38.6213
73.242188 97.513 41.2674
73.608398 97.585 43.6249
73.974609 97.717 45.5768
74.340820 97.880 47.1057
74.707031 98.055 48.2786
75.073242 98.232 49.1935
75.439453 98.412 49.9232
75.805664 98.600 50.4885
76.171875 98.796 50.8686
76.538086 98.997 51.0328
76.904297 99.195 50.9656
77.270508 99.383 50.6733
77.636719 99.554 50.1757
78.002930 99.702 49.5016
78.369141 99.819 48.6932
78.735352 99.898 47.8182
79.101562 99.933 46.9779
79.467773 99.928 46.2980
79.833984 99.895 45.9008
80.200195 99.856 45.8623
80.566406 99.838 46.1700
80.932617 99.865 46.7075
81.298828 99.945 47.2921
81.665039 100.069 47.7557
82.031250 100.212 48.0251
82.397461 100.355 48.1490
82.763672 100.487 48.2617
83.129883 100.618 48.5019
83.496094 100.772 48.9276
83.862305 100.975 49.4665
84.228516 101.240 49.9398
84.594727 101.561 50.1487
84.960938 101.919 49.9649
85.327148 102.287 49.3644
85.693359 102.648 48.3998
86.059570 102.993 47.1473
86.425781 103.319 45.6671
86.791992 103.627 43.9905
87.158203 103.915 42.1307
87.524414 104.182 40.0995
87.890625 104.422 37.9198
88.256836 104.633 35.6257
88.623047 104.814 33.2576
88.989258 104.965 30.8558
89.355469 105.090 28.4550
89.721680 105.192 26.0807
90.087891 105.275 23.7457
90.454102 105.345 21.4484
90.820312 105.405 19.1750
91.186523 105.456 16.9050
91.552734 105.497 14.6206
91.918945 105.526 12.3134
92.285156 105.538 9.9873
92.651367 105.533 7.6561
93.017578 105.510 5.3395
93.383789 105.470 3.0596
93.750000 105.415 0.8384
94.116211 105.346 -1.3060
94.482422 105.271 -3.3646
94.848633 105.191 -5.3426
95.214844 105.112 -7.2615
95.581055 105.034 -9.1544
95.947266 104.957 -11.0541
96.313477 104.874 -12.9809
96.679688 104.781 -14.9347
97.045898 104.673 -16.8958
97.412109 104.548 -18.8318
97.778320 104.408 -20.7076
98.144531 104.255 -22.4945
98.510742 104.094 -24.1778
98.876953 103.929 -25.7596
99.243164 103.765 -27.2587
99.609375 103.603 -28.7040
99.975586 103.443 -30.1244
100.341797 103.280 -31.5372
100.708008 103.110 -32.9418
101.074219 102.932 -34.3213
101.440430 102.744 -35.6520
101.806641 102.546 -36.9116
102.172852 102.338 -38.0836
102.539062 102.124 -39.1523
102.905273 101.904 -40.0986
103.271484 101.683 -40.8996
103.637695 101.468 -41.5420
104.003906 101.268 -42.0407
104.370117 101.092 -42.4510
104.736328 100.944 -42.8581
105.102539 100.818 -43.3468
105.468750 100.701 -43.9660
105.834961 100.582 -44.7136
106.201172 100.452 -45.5463
106.567383 100.308 -46.4078
106.933594 100.150 -47.2549
107.299805 99.982 -48.0678
107.666016 99.806 -48.8423
108.032227 99.623 -49.5758
108.398438 99.434 -50.2595
108.764648 99.239 -50.8846
109.130859 99.041 -51.4542
109.497070 98.839 -51.9859
109.863281 98.632 -52.4990
110.229492 98.413 -52.9920
110.595703 98.175 -53.4290
110.961914 97.917 -53.7471
111.328125 97.644 -53.8836
111.694336 97.365 -53.8033
112.060547 97.089 -53.5098
112.426758 96.823 -53.0302
112.792969 96.567 -52.3879
113.159180 96.323 -51.5855
113.525391 96.095 -50.6124
113.891602 95.886 -49.4697
114.257812 95.705 -48.1879
114.624023 95.554 -46.8200
114.990234 95.430 -45.4138
115.356445 95.327 -43.9855
115.722656 95.242 -42.5161
116.088867 95.175 -40.9716
116.455078 95.132 -39.3323
116.821289 95.123 -37.6135
117.187500 95.154 -35.8674
117.553711 95.226 -34.1666
117.919922 95.335 -32.5797
118.286133 95.474 -31.1503
118.652344 95.633 -29.8917
119.018555 95.805 -28.7955
119.384766 95.987 -27.8486
119.750977 96.176 -27.0459
120.117188 96.369 -26.3879
120.483398 96.560 -25.8649
120.849609 96.741 -25.4399
121.215820 96.910 -25.0468
121.582031 97.073 -24.6101
121.948242 97.239 -24.0797
122.314453 97.421 -23.4587
122.680664 97.632 -22.8056
123.046875 97.873 -22.2052
123.413086 98.140 -21.7253
123.779297 98.426 -21.3907
124.145508 98.725 -21.1902
124.511719 99.038 -21.1089
124.877930 99.369 -21.1588
125.244141 99.720 -21.3862
125.610352 100.084 -21.8506
125.976562 100.454 -22.5900
126.342773 100.815 -23.5967
126.708984 101.158 -24.8187
127.075195 101.480 -26.1827
127.441406 101.784 -27.6263
127.807617 102.078 -29.1207
128.173828 102.368 -30.6758
128.540039 102.657 -32.3261
128.906250 102.944 -34.1085
129.272461 103.224 -36.0439
129.638672 103.492 -38.1313
130.004883 103.744 -40.3546
130.371094 103.977 -42.6921
130.737305 104.192 -45.1251
131.103516 104.387 -47.6399
131.469727 104.563 -50.2268
131.835938 104.720 -52.8782
132.202148 104.857 -55.5865
132.568359 104.972 -58.3412
132.934570 105.065 -61.1271
133.300781 105.136 -63.9228
133.666992 105.184 -66.7031
134.033203 105.214 -69.4460
134.399414 105.228 -72.1412
134.765625 105.232 -74.7951
135.131836 105.226 -77.4261
135.498047 105.209 -80.0519
135.864258 105.179 -82.6747
136.230469 105.133 -85.2745
136.596680 105.070 -87.8156
136.962891 104.994 -90.2636
137.329102 104.913 -92.6045
137.695312 104.834 -94.8538
138.061523 104.762 -97.0519
138.427734 104.698 -99.2476
138.793945 104.639 -101.4800
139.160156 104.579 -103.7697
139.526367 104.517 -106.1196
139.892578 104.447 -108.5223
140.258789 104.368 -110.9674
140.625000 104.277 -113.4450
140.991211 104.175 -115.9454
141.357422 104.061 -118.4573
141.723633 103.933 -120.9684
142.089844 103.792 -123.4653
142.456055 103.640 -125.9355
142.822266 103.476 -128.3696
143.188477 103.303 -130.7622
143.554688 103.122 -133.1130
143.920898 102.935 -135.4244
144.287109 102.743 -137.6989
144.653320 102.545 -139.9358
145.019531 102.342 -142.1329
145.385742 102.136 -144.2905
145.751953 101.929 -146.4167
146.118164 101.722 -148.5293
146.484375 101.514 -150.6473
146.850586 101.301 -152.7812
147.216797 101.082 -154.9249
147.583008 100.854 -157.0623
147.949219 100.621 -159.1831
148.315430 100.384 -161.2996
148.681641 100.146 -163.4475
149.047852 99.900 -165.6685
149.414062 99.638 -167.9778
149.780273 99.346 -170.3424
150.146484 99.019 -172.6838
150.512695 98.656 -174.9045
150.878906 98.267 -176.9254
151.245117 97.864 -178.7146
151.611328 97.455 179.7126
151.977539 97.046 178.3231
152.343750 96.633 177.1067
152.709961 96.214 176.0986
153.076172 95.794 175.3695
153.442383 95.381 174.9858
153.808594 94.995 174.9705
154.174805 94.652 175.2871
154.541016 94.365 175.8617
154.907227 94.141 176.6194
155.273438 93.984 177.5078
155.639648 93.902 178.4823
156.005859 93.906 179.4659
156.372070 94.008 -179.6808
156.738281 94.209 -179.1520
157.104492 94.495 -179.1471
157.470703 94.840 -179.8108
157.836914 95.212 178.8030
158.203125 95.581 176.7302
158.569336 95.926 174.0688
158.935547 96.234 170.9424
159.301758 96.502 167.4646
159.667969 96.733 163.7175
160.034180 96.931 159.7446
160.400391 97.098 155.5598
160.766602 97.234 151.1675
161.132812 97.333 146.5845
161.499023 97.392 141.8503
161.865234 97.406 137.0236
162.231445 97.376 132.1680
162.597656 97.307 127.3376
162.963867 97.202 122.5696
163.330078 97.067 117.8850
163.696289 96.903 113.3003
164.062500 96.714 108.8337
164.428711 96.500 104.5076
164.794922 96.267 100.3387
165.161133 96.015 96.3328
165.527344 95.747 92.4858
165.893555 95.458 88.8015
166.259766 95.143 85.3105
166.625977 94.798 82.0825
166.992188 94.425 79.2159
167.358398 94.032 76.8103
167.724609 93.634 74.9326
168.090820 93.250 73.6011
168.457031 92.894 72.7966
168.823242 92.576 72.4961
169.189453 92.308 72.6923
169.555664 92.103 73.3789
169.921875 91.983 74.5072
170.288086 91.970 75.9490
170.654297 92.075 77.5059
171.020508 92.295 78.9614
171.386719 92.617 80.1344
171.752930 93.018 80.9014
172.119141 93.476 81.1909
172.485352 93.968 80.9774
172.851562 94.472 80.2812
173.217773 94.968 79.1677
173.583984 95.444 77.7324
173.950195 95.895 76.0778
174.316406 96.323 74.2894
174.682617 96.732 72.4240
175.048828 97.128 70.5085
175.415039 97.515 68.5504
175.781250 97.895 66.5475
176.147461 98.269 64.4946
176.513672 98.639 62.3856
176.879883 99.004 60.2152
177.246094 99.362 57.9802
177.612305 99.713 55.6824
177.978516 100.055 53.3258
178.344727 100.390 50.9159
178.710938 100.715 48.4540
179.077148 101.033 45.9370
179.443359 101.341 43.3597
179.809570 101.638 40.7194
180.175781 101.921 38.0182
180.541992 102.190 35.2646
180.908203 102.441 32.4711
181.274414 102.675 29.6512
181.640625 102.890 26.8197
182.006836 103.086 23.9927
182.373047 103.262 21.1890
182.739258 103.420 18.4296
183.105469 103.562 15.7357
183.471680 103.689 13.1245
183.837891 103.807 10.6060
184.204102 103.919 8.1807
184.570312 104.029 5.8397
184.936523 104.140 3.5667
185.302734 104.253 1.3412
185.668945 104.369 -0.8575
186.035156 104.488 -3.0472
186.401367 104.608 -5.2413
186.767578 104.727 -7.4474
187.133789 104.844 -9.6687
187.500000 104.957 -11.9043
187.866211 105.065 -14.1488
188.232422 105.166 -16.3918
188.598633 105.262 -18.6198
188.964844 105.352 -20.8191
189.331055 105.441 -22.9819
189.697266 105.532 -25.1116
190.063477 105.628 -27.2247
190.429688 105.730 -29.3485
190.795898 105.838 -31.5127
191.162109 105.951 -33.7423
191.528320 106.064 -36.0522
191.894531 106.174 -38.4480
192.260742 106.278 -40.9288
192.626953 106.374 -43.4912
192.993164 106.459 -46.1320
193.359375 106.532 -48.8467
193.725586 106.590 -51.6285
194.091797 106.631 -54.4669
194.458008 106.654 -57.3477
194.824219 106.657 -60.2545
195.190430 106.640 -63.1700
195.556641 106.603 -66.0759
195.922852 106.546 -68.9546
196.289062 106.470 -71.7886
196.655273 106.377 -74.5631
197.021484 106.271 -77.2673
197.387695 106.153 -79.8967
197.753906 106.027 -82.4519
198.120117 105.894 -84.9376
198.486328 105.755 -87.3599
198.852539 105.613 -89.7247
199.218750 105.468 -92.0387
199.584961 105.323 -94.3105
199.951172 105.178 -96.5533
200.317383 105.035 -98.7848
200.683594 104.894 -101.0247
201.049805 104.753 -103.2924
201.416016 104.612 -105.6042
201.782227 104.467 -107.9740
202.148438 104.319 -110.4132
202.514648 104.164 -112.9341
202.880859 104.001 -115.5497
203.247070 103.827 -118.2744
203.613281 103.640 -121.1228
203.979492 103.435 -124.1091
204.345703 103.208 -127.2458
204.711914 102.955 -130.5436
205.078125 102.669 -134.0106
205.444336 102.343 -137.6525
205.810547 101.970 -141.4723
206.176758 101.543 -145.4712
206.542969 101.050 -149.6477
206.909180 100.480 -153.9960
207.275391 99.821 -158.5011
207.641602 99.055 -163.1359
208.007812 98.165 -167.8578
208.374023 97.130 -172.6097
208.740234 95.928 -177.3269
209.106445 94.530 178.0527
209.472656 92.896 173.5724
209.838867 90.966 169.2358
210.205078 88.632 164.9735
210.571289 85.677 160.5526
210.937500 81.594 155.2035
211.303711 74.701 144.7090
211.669922 64.059 33.7570
212.036133 76.439 -13.6716
212.402344 81.413 -20.4716
212.768555 84.383 -23.7922
213.134766 86.478 -25.9934
213.500977 88.096 -27.6709
213.867188 89.419 -29.0830
214.233398 90.545 -30.3763
214.599609 91.531 -31.6434
214.965820 92.410 -32.9447
215.332031 93.203 -34.3206
215.698242 93.924 -35.7969
216.064453 94.580 -37.3848
216.430664 95.174 -39.0791
216.796875 95.710 -40.8591
217.163086 96.192 -42.6936
217.529297 96.624 -44.5500
217.895508 97.011 -46.4021
218.261719 97.360 -48.2324
218.627930 97.674 -50.0300
218.994141 97.958 -51.7872
219.360352 98.217 -53.4978
219.726562 98.454 -55.1609
220.092773 98.674 -56.7860
220.458984 98.880 -58.3929
220.825195 99.071 -60.0038
221.191406 99.245 -61.6296
221.557617 99.399 -63.2612
221.923828 99.531 -64.8718
222.290039 99.644 -66.4314
222.656250 99.741 -67.9257
223.022461 99.828 -69.3655
223.388672 99.907 -70.7797
223.754883 99.975 -72.1954
224.121094 100.027 -73.6184
224.487305 100.058 -75.0264
224.853516 100.066 -76.3800
225.219727 100.051 -77.6407
225.585938 100.018 -78.7825
225.952148 99.966 -79.7887
226.318359 99.898 -80.6362
226.684570 99.813 -81.2802
227.050781 99.716 -81.6539
227.416992 99.619 -81.6898
227.783203 99.540 -81.3549
228.149414 99.501 -80.6816
228.515625 99.521 -79.7755
228.881836 99.610 -78.7881
229.248047 99.764 -77.8727
229.614258 99.973 -77.1455
229.980469 100.224 -76.6725
230.346680 100.501 -76.4757
230.712891 100.795 -76.5504
231.079102 101.097 -76.8778
231.445312 101.404 -77.4360
231.811523 101.711 -78.2075
232.177734 102.018 -79.1848
232.543945 102.325 -80.3737
232.910156 102.629 -81.7894
233.276367 102.924 -83.4474
233.642578 103.205 -85.3535
234.008789 103.463 -87.4958
234.375000 103.692 -89.8429
234.741211 103.886 -92.3484
235.107422 104.044 -94.9601
235.473633 104.165 -97.6284
235.839844 104.254 -100.3145
236.206055 104.315 -102.9929
236.572266 104.350 -105.6533
236.938477 104.365 -108.2954
237.304688 104.361 -110.9248
237.670898 104.339 -113.5483
238.037109 104.301 -116.1721
238.403320 104.245 -118.8027
238.769531 104.173 -121.4491
239.135742 104.084 -124.1252
239.501953 103.976 -126.8485
239.868164 103.846 -129.6350
240.234375 103.688 -132.4907
240.600586 103.496 -135.4058
240.966797 103.263 -138.3518
241.333008 102.987 -141.2863
241.699219 102.664 -144.1620
242.065430 102.297 -146.9386
242.431641 101.888 -149.5897
242.797852 101.439 -152.1050
243.164062 100.950 -154.4844
243.530273 100.420 -156.7312
243.896484 99.846 -158.8459
244.262695 99.221 -160.8260
244.628906 98.538 -162.6661
244.995117 97.785 -164.3561
245.361328 96.941 -165.8662
245.727539 95.980 -167.1201
246.093750 94.862 -167.9507
246.459961 93.541 -168.0320
246.826172 91.959 -166.7534
247.192383 90.063 -162.9550
247.558594 87.886 -154.4111
247.924805 85.849 -137.6665
248.291016 85.209 -112.8578
248.657227 86.589 -90.7998
249.023438 88.737 -78.0293
249.389648 90.757 -71.9161
249.755859 92.457 -69.4185
250.122070 93.861 -68.8514
250.488281 95.024 -69.3429
250.854492 95.999 -70.4286
251.220703 96.825 -71.8552
251.586914 97.533 -73.4825
251.953125 98.144 -75.2295
252.319336 98.675 -77.0428
252.685547 99.136 -78.8816
253.051758 99.536 -80.7114
253.417969 99.884 -82.5032
253.784180 100.185 -84.2325
254.150391 100.444 -85.8760
254.516602 100.667 -87.4048
254.882812 100.857 -88.7825
255.249023 101.023 -89.9657
255.615234 101.174 -90.9133
255.981445 101.323 -91.5999
256.347656 101.488 -92.0284
256.713867 101.684 -92.2422
257.080078 101.928 -92.3259
257.446289 102.229 -92.4012
257.812500 102.592 -92.6134
258.178711 103.011 -93.1140
258.544922 103.477 -94.0400
258.911133 103.970 -95.4952
259.277344 104.470 -97.5382
259.643555 104.953 -100.1815
260.009766 105.400 -103.3979
260.375977 105.793 -107.1337
260.742188 106.120 -111.3201
261.108398 106.367 -115.8832
261.474609 106.528 -120.7480
261.840820 106.593 -125.8389
262.207031 106.555 -131.0757
262.573242 106.408 -136.3711
262.939453 106.143 -141.6255
263.305664 105.757 -146.7234
263.671875 105.243 -151.5311
264.038086 104.601 -155.8931
264.404297 103.830 -159.6287
264.770508 102.936 -162.5248
265.136719 101.930 -164.3273
265.502930 100.835 -164.7321
265.869141 99.696 -163.3914
266.235352 98.592 -159.9746
266.601562 97.649 -154.3524
266.967773 97.024 -146.9076
267.333984 96.831 -138.7101
267.700195 97.059 -131.1340
268.066406 97.588 -125.1464
268.432617 98.266 -121.0216
268.798828 98.982 -118.5750
269.165039 99.671 -117.4713
269.531250 100.300 -117.3899
269.897461 100.856 -118.0724
270.263672 101.334 -119.3207
270.629883 101.735 -120.9810
270.996094 102.058 -122.9297
271.362305 102.307 -125.0637
271.728516 102.485 -127.2969
272.094727 102.598 -129.5580
272.460938 102.651 -131.7896
272.827148 102.649 -133.9459
273.193359 102.594 -135.9882
273.559570 102.489 -137.8771
273.925781 102.338 -139.5663
274.291992 102.143 -140.9983
274.658203 101.909 -142.1045
275.024414 101.646 -142.8121
275.390625 101.368 -143.0577
275.756836 101.093 -142.8035
276.123047 100.845 -142.0542
276.489258 100.644 -140.8689
276.855469 100.510 -139.3608
277.221680 100.453 -137.6851
277.587891 100.475 -136.0116
277.954102 100.568 -134.4969
278.320312 100.716 -133.2592
278.686523 100.901 -132.3661
279.052734 101.103 -131.8361
279.418945 101.305 -131.6472
279.785156 101.493 -131.7504
280.151367 101.657 -132.0795
280.517578 101.792 -132.5604
280.883789 101.893 -133.1168
281.250000 101.962 -133.6738
281.616211 102.002 -134.1631
281.982422 102.018 -134.5251
282.348633 102.019 -134.7120
282.714844 102.014 -134.6910
283.081055 102.015 -134.4474
283.447266 102.034 -133.9894
283.813477 102.082 -133.3522
284.179688 102.172 -132.6006
284.545898 102.309 -131.8254
284.912109 102.495 -131.1346
285.278320 102.727 -130.6377
285.644531 102.994 -130.4303
286.010742 103.281 -130.5786
286.376953 103.570 -131.1090
286.743164 103.844 -132.0044
287.109375 104.086 -133.2079
287.475586 104.287 -134.6339
287.841797 104.439 -136.1823
288.208008 104.544 -137.7531
288.574219 104.606 -139.2599
288.940430 104.632 -140.6364
289.306641 104.632 -141.8391
289.672852 104.617 -142.8475
290.039062 104.595 -143.6610
290.405273 104.576 -144.2970
290.771484 104.565 -144.7877
291.137695 104.567 -145.1742
291.503906 104.583 -145.4972
291.870117 104.613 -145.7880
292.236328 104.653 -146.0648
292.602539 104.703 -146.3358
292.968750 104.762 -146.6073
293.334961 104.831 -146.8894
293.701172 104.907 -147.1962
294.067383 104.991 -147.5393
294.433594 105.079 -147.9209
294.799805 105.169 -148.3319
295.166016 105.262 -148.7606
295.532227 105.361 -149.2040
295.898438 105.469 -149.6771
296.264648 105.587 -150.2124
296.630859 105.712 -150.8486
296.997070 105.841 -151.6171
297.363281 105.965 -152.5320
297.729492 106.077 -153.5881
298.095703 106.172 -154.7666
298.461914 106.243 -156.0386
298.828125 106.285 -157.3676
299.194336 106.294 -158.7058
299.560547 106.267 -159.9904
299.926758 106.203 -161.1426
