* Measurement data measured by REW V5.20.8
* Source: ASIO hdspfire, Analog 1 (1)
* Format: 4M Log Swept Sine, 1 sweep at -12.0 dBFS with no timing reference
* Dated: 13 juin 2022 13:36:55
* REW Settings:
*  C-weighting compensation: Off
*  Target level: 75.0 dB
* Note: ; 
* Measurement: off_0x1400_1_0 juin 13
* Smoothing: None
* Frequency Step: 0.36621094 Hz
* Start Frequency: 0.36621094 Hz
*
* Freq(Hz) SPL(dB) Phase(degrees)
0.366211 18.768 -5.0276
0.732422 12.859 21.2322
1.098633 17.133 82.7062
1.464844 21.924 83.1264
1.831055 22.767 72.9863
2.197266 19.360 67.4315
2.563477 13.318 138.5262
2.929688 23.494 169.4191
3.295898 27.655 158.6628
3.662109 28.181 145.9072
4.028320 25.076 145.2670
4.394531 23.723 -162.5768
4.760742 30.490 -148.2277
5.126953 33.728 -164.9185
5.493164 33.568 166.0775
5.859375 30.202 105.7490
6.225586 34.981 12.5858
6.591797 41.532 -29.3448
6.958008 45.176 -56.8827
7.324219 46.696 -79.2345
7.690430 46.187 -95.8389
8.056641 43.354 -96.3772
8.422852 43.103 -56.6248
8.789062 49.284 -42.5685
9.155273 53.773 -52.8247
9.521484 56.573 -68.3498
9.887695 58.237 -84.2134
10.253906 59.131 -98.2392
10.620117 59.605 -109.1043
10.986328 60.054 -116.7232
11.352539 60.741 -122.8457
11.718750 61.552 -129.5241
12.084961 62.139 -136.7078
12.451172 62.285 -141.8407
12.817383 62.255 -140.7600
13.183594 63.184 -132.5419
13.549805 65.744 -126.6959
13.916016 68.783 -129.7691
14.282227 71.372 -139.2238
14.648438 73.283 -151.7497
15.014648 74.511 -165.2735
15.380859 75.081 -178.3674
15.747070 75.020 170.3621
16.113281 74.405 162.8083
16.479492 73.544 161.5721
16.845703 73.289 167.5630
17.211914 74.418 174.4854
17.578125 76.326 175.0021
17.944336 78.082 169.2278
18.310547 79.303 159.8889
18.676758 79.892 149.1742
19.042969 79.818 138.8060
19.409180 79.062 130.6747
19.775391 77.685 127.6415
20.141602 76.167 133.9272
20.507812 75.934 149.7681
20.874023 77.671 163.5124
21.240234 80.060 168.8708
21.606445 82.295 168.8910
21.972656 84.283 166.2664
22.338867 86.065 162.0685
22.705078 87.651 156.7530
23.071289 89.027 150.7848
23.437500 90.207 144.7622
23.803711 91.237 139.2559
24.169922 92.228 134.5269
24.536133 93.297 130.2925
24.902344 94.495 125.8129
25.268555 95.783 120.3578
25.634766 97.067 113.6201
26.000977 98.263 105.7263
26.367188 99.324 97.0117
26.733398 100.237 87.8226
27.099609 101.010 78.4254
27.465820 101.658 68.9996
27.832031 102.196 59.6700
28.198242 102.638 50.5443
28.564453 103.002 41.7262
28.930664 103.315 33.2878
29.296875 103.608 25.2183
29.663086 103.909 17.3871
30.029297 104.229 9.5714
30.395508 104.553 1.5549
30.761719 104.849 -6.7639
31.127930 105.083 -15.3231
31.494141 105.231 -23.9298
31.860352 105.296 -32.3401
32.226562 105.298 -40.3519
32.592773 105.265 -47.8778
32.958984 105.225 -54.9677
33.325195 105.199 -61.7621
33.691406 105.183 -68.3967
34.057617 105.162 -74.9241
34.423828 105.127 -81.3043
34.790039 105.075 -87.4564
35.156250 105.016 -93.3283
35.522461 104.961 -98.9334
35.888672 104.916 -104.3374
36.254883 104.877 -109.6089
36.621094 104.836 -114.7791
36.987305 104.785 -119.8364
37.353516 104.720 -124.7511
37.719727 104.638 -129.4985
38.085938 104.539 -134.0588
38.452148 104.422 -138.3978
38.818359 104.287 -142.4565
39.184570 104.146 -146.1726
39.550781 104.018 -149.5348
39.916992 103.924 -152.6324
40.283203 103.873 -155.6517
40.649414 103.854 -158.8000
41.015625 103.838 -162.2014
41.381836 103.787 -165.8350
41.748047 103.673 -169.5443
42.114258 103.483 -173.0923
42.480469 103.225 -176.2311
42.846680 102.926 -178.7670
43.212891 102.624 179.3863
43.579102 102.354 178.1817
43.945312 102.140 177.4635
44.311523 101.984 177.0477
44.677734 101.878 176.8201
45.043945 101.808 176.7864
45.410156 101.774 177.0405
45.776367 101.795 177.6647
46.142578 101.902 178.6234
46.508789 102.122 179.7230
46.875000 102.460 -179.3176
47.241211 102.895 -178.7360
47.607422 103.399 -178.6421
47.973633 103.946 -179.0339
48.339844 104.524 -179.8713
48.706055 105.128 178.8578
49.072266 105.756 177.1163
49.438477 106.398 174.8368
49.804688 107.038 171.9597
50.170898 107.656 168.4638
50.537109 108.228 164.3790
50.903320 108.733 159.7830
51.269531 109.157 154.7892
51.635742 109.489 149.5314
52.001953 109.726 144.1489
52.368164 109.870 138.7728
52.734375 109.929 133.5159
53.100586 109.914 128.4640
53.466797 109.837 123.6723
53.833008 109.711 119.1662
54.199219 109.547 114.9455
54.565430 109.352 110.9938
54.931641 109.131 107.2906
55.297852 108.885 103.8254
55.664062 108.615 100.6078
56.030273 108.322 97.6702
56.396484 108.011 95.0583
56.762695 107.692 92.8102
57.128906 107.381 90.9326
57.495117 107.090 89.3869
57.861328 106.830 88.0970
58.227539 106.606 86.9766
58.593750 106.413 85.9608
58.959961 106.245 85.0192
59.326172 106.100 84.1466
59.692383 105.978 83.3389
60.058594 105.883 82.5733
60.424805 105.817 81.8060
60.791016 105.779 80.9847
61.157227 105.763 80.0696
61.523438 105.759 79.0468
61.889648 105.761 77.9303
62.255859 105.762 76.7518
62.622070 105.765 75.5414
62.988281 105.774 74.3096
63.354492 105.794 73.0364
63.720703 105.825 71.6791
64.086914 105.863 70.1951
64.453125 105.898 68.5684
64.819336 105.921 66.8210
65.185547 105.930 65.0017
65.551758 105.926 63.1573
65.917969 105.912 61.3050
66.284180 105.892 59.4252
66.650391 105.864 57.4816
67.016602 105.822 55.4556
67.382812 105.755 53.3717
67.749023 105.659 51.2955
68.115234 105.533 49.3059
68.481445 105.386 47.4583
68.847656 105.228 45.7620
69.213867 105.065 44.1865
69.580078 104.897 42.6932
69.946289 104.718 41.2733
70.312500 104.522 39.9633
70.678711 104.310 38.8311
71.044922 104.090 37.9404
71.411133 103.875 37.3151
71.777344 103.677 36.9258
72.143555 103.506 36.7054
72.509766 103.360 36.5848
72.875977 103.237 36.5225
73.242188 103.132 36.5090
73.608398 103.045 36.5475
73.974609 102.979 36.6302
74.340820 102.934 36.7294
74.707031 102.911 36.8120
75.073242 102.904 36.8618
75.439453 102.911 36.8884
75.805664 102.931 36.9103
76.171875 102.969 36.9232
76.538086 103.028 36.8804
76.904297 103.105 36.7083
77.270508 103.190 36.3507
77.636719 103.269 35.8110
78.002930 103.327 35.1605
78.369141 103.362 34.5068
78.735352 103.381 33.9437
79.101562 103.396 33.5114
79.467773 103.418 33.1923
79.833984 103.451 32.9411
80.200195 103.495 32.7234
80.566406 103.546 32.5336
80.932617 103.608 32.3818
81.298828 103.682 32.2686
81.665039 103.771 32.1746
82.031250 103.877 32.0742
82.397461 103.996 31.9560
82.763672 104.127 31.8308
83.129883 104.273 31.7144
83.496094 104.439 31.6022
83.862305 104.631 31.4587
84.228516 104.849 31.2291
84.594727 105.091 30.8636
84.960938 105.353 30.3300
85.327148 105.630 29.6080
85.693359 105.920 28.6760
86.059570 106.216 27.5068
86.425781 106.511 26.0801
86.791992 106.795 24.3997
87.158203 107.058 22.5012
87.524414 107.294 20.4415
87.890625 107.504 18.2797
88.256836 107.689 16.0598
88.623047 107.854 13.8054
88.989258 108.000 11.5270
89.355469 108.130 9.2311
89.721680 108.245 6.9238
90.087891 108.348 4.6072
90.454102 108.440 2.2733
90.820312 108.521 -0.0942
91.186523 108.590 -2.5094
91.552734 108.641 -4.9708
91.918945 108.671 -7.4558
92.285156 108.677 -9.9273
92.651367 108.663 -12.3491
93.017578 108.633 -14.6986
93.383789 108.590 -16.9706
93.750000 108.538 -19.1686
94.116211 108.480 -21.2948
94.482422 108.417 -23.3472
94.848633 108.354 -25.3276
95.214844 108.293 -27.2543
95.581055 108.237 -29.1658
95.947266 108.184 -31.1090
96.313477 108.128 -33.1174
96.679688 108.059 -35.1932
97.045898 107.971 -37.3051
97.412109 107.861 -39.4011
97.778320 107.728 -41.4285
98.144531 107.578 -43.3480
98.510742 107.416 -45.1380
98.876953 107.246 -46.7901
99.243164 107.074 -48.3046
99.609375 106.904 -49.6904
99.975586 106.741 -50.9677
100.341797 106.586 -52.1669
100.708008 106.439 -53.3201
101.074219 106.299 -54.4479
101.440430 106.162 -55.5527
101.806641 106.026 -56.6228
102.172852 105.892 -57.6456
102.539062 105.761 -58.6197
102.905273 105.637 -59.5568
103.271484 105.518 -60.4737
103.637695 105.403 -61.3825
104.003906 105.292 -62.2879
104.370117 105.185 -63.1924
104.736328 105.082 -64.1031
105.102539 104.981 -65.0311
105.468750 104.879 -65.9837
105.834961 104.774 -66.9556
106.201172 104.662 -67.9282
106.567383 104.545 -68.8793
106.933594 104.424 -69.7944
107.299805 104.302 -70.6721
107.666016 104.178 -71.5196
108.032227 104.053 -72.3411
108.398438 103.927 -73.1318
108.764648 103.799 -73.8817
109.130859 103.670 -74.5850
109.497070 103.542 -75.2467
109.863281 103.415 -75.8792
110.229492 103.288 -76.4904
110.595703 103.158 -77.0740
110.961914 103.022 -77.6097
111.328125 102.884 -78.0728
111.694336 102.747 -78.4484
112.060547 102.615 -78.7396
112.426758 102.493 -78.9648
112.792969 102.380 -79.1497
113.159180 102.278 -79.3171
113.525391 102.184 -79.4816
113.891602 102.095 -79.6477
114.257812 102.008 -79.8102
114.624023 101.921 -79.9554
114.990234 101.836 -80.0649
115.356445 101.753 -80.1226
115.722656 101.677 -80.1219
116.088867 101.609 -80.0703
116.455078 101.553 -79.9861
116.821289 101.508 -79.8897
117.187500 101.473 -79.7938
117.553711 101.447 -79.6992
117.919922 101.428 -79.5985
118.286133 101.418 -79.4854
118.652344 101.420 -79.3649
119.018555 101.436 -79.2584
119.384766 101.466 -79.2004
119.750977 101.509 -79.2270
120.117188 101.558 -79.3606
120.483398 101.606 -79.5999
120.849609 101.647 -79.9188
121.215820 101.679 -80.2766
121.582031 101.703 -80.6332
121.948242 101.722 -80.9632
122.314453 101.741 -81.2601
122.680664 101.761 -81.5315
123.046875 101.783 -81.7866
123.413086 101.809 -82.0276
123.779297 101.836 -82.2476
124.145508 101.869 -82.4381
124.511719 101.909 -82.5993
124.877930 101.960 -82.7477
125.244141 102.025 -82.9139
125.610352 102.102 -83.1329
125.976562 102.186 -83.4288
126.342773 102.272 -83.8041
126.708984 102.354 -84.2382
127.075195 102.433 -84.6959
127.441406 102.508 -85.1433
127.807617 102.587 -85.5629
128.173828 102.673 -85.9609
128.540039 102.772 -86.3654
128.906250 102.884 -86.8143
129.272461 103.009 -87.3434
129.638672 103.141 -87.9785
130.004883 103.278 -88.7338
130.371094 103.414 -89.6139
130.737305 103.546 -90.6147
131.103516 103.668 -91.7234
131.469727 103.779 -92.9193
131.835938 103.876 -94.1771
132.202148 103.960 -95.4730
132.568359 104.032 -96.7907
132.934570 104.094 -98.1232
133.300781 104.146 -99.4691
133.666992 104.188 -100.8271
134.033203 104.219 -102.1902
134.399414 104.239 -103.5441
134.765625 104.247 -104.8694
135.131836 104.246 -106.1465
135.498047 104.238 -107.3619
135.864258 104.228 -108.5119
136.230469 104.220 -109.6041
136.596680 104.215 -110.6550
136.962891 104.216 -111.6843
137.329102 104.223 -112.7103
137.695312 104.234 -113.7468
138.061523 104.250 -114.8067
138.427734 104.270 -115.9060
138.793945 104.294 -117.0659
139.160156 104.316 -118.3076
139.526367 104.334 -119.6417
139.892578 104.340 -121.0586
140.258789 104.328 -122.5274
140.625000 104.297 -124.0049
140.991211 104.248 -125.4501
141.357422 104.185 -126.8376
141.723633 104.113 -128.1610
142.089844 104.033 -129.4265
142.456055 103.946 -130.6405
142.822266 103.850 -131.8003
143.188477 103.746 -132.8927
143.554688 103.636 -133.8994
143.920898 103.522 -134.8064
144.287109 103.409 -135.6101
144.653320 103.299 -136.3191
145.019531 103.196 -136.9502
145.385742 103.099 -137.5215
145.751953 103.008 -138.0425
146.118164 102.922 -138.5092
146.484375 102.841 -138.9065
146.850586 102.769 -139.2211
147.216797 102.711 -139.4570
147.583008 102.672 -139.6469
147.949219 102.656 -139.8445
148.315430 102.658 -140.1036
148.681641 102.671 -140.4528
149.047852 102.688 -140.8855
149.414062 102.705 -141.3726
149.780273 102.722 -141.8866
150.146484 102.742 -142.4209
150.512695 102.769 -142.9916
150.878906 102.799 -143.6204
151.245117 102.830 -144.3148
151.611328 102.857 -145.0596
151.977539 102.879 -145.8252
152.343750 102.898 -146.5872
152.709961 102.919 -147.3392
153.076172 102.946 -148.0947
153.442383 102.978 -148.8748
153.808594 103.013 -149.6934
154.174805 103.049 -150.5503
154.541016 103.086 -151.4342
154.907227 103.124 -152.3324
155.273438 103.167 -153.2434
155.639648 103.218 -154.1831
156.005859 103.278 -155.1848
156.372070 103.347 -156.2893
156.738281 103.417 -157.5300
157.104492 103.482 -158.9172
157.470703 103.534 -160.4303
157.836914 103.567 -162.0239
158.203125 103.582 -163.6464
158.569336 103.584 -165.2625
158.935547 103.578 -166.8691
159.301758 103.568 -168.4930
159.667969 103.554 -170.1698
160.034180 103.528 -171.9171
160.400391 103.485 -173.7175
160.766602 103.420 -175.5222
161.132812 103.336 -177.2739
161.499023 103.239 -178.9329
161.865234 103.138 179.5054
162.231445 103.041 178.0120
162.597656 102.949 176.5427
162.963867 102.861 175.0607
163.330078 102.776 173.5481
163.696289 102.689 172.0027
164.062500 102.600 170.4250
164.428711 102.511 168.8077
164.794922 102.420 167.1344
165.161133 102.325 165.3879
165.527344 102.222 163.5605
165.893555 102.109 161.6584
166.259766 101.982 159.6960
166.625977 101.842 157.6868
166.992188 101.690 155.6327
167.358398 101.527 153.5231
167.724609 101.351 151.3391
168.090820 101.160 149.0645
168.457031 100.949 146.6934
168.823242 100.714 144.2319
169.189453 100.452 141.6924
169.555664 100.163 139.0830
169.921875 99.844 136.4001
170.288086 99.493 133.6282
170.654297 99.105 130.7490
171.020508 98.671 127.7563
171.386719 98.181 124.6677
171.752930 97.624 121.5281
172.119141 96.994 118.4011
172.485352 96.290 115.3503
172.851562 95.512 112.4185
173.217773 94.663 109.6111
173.583984 93.742 106.8920
173.950195 92.741 104.1925
174.316406 91.646 101.4219
174.682617 90.431 98.4658
175.048828 89.065 95.1553
175.415039 87.499 91.1881
175.781250 85.663 85.9712
176.147461 83.450 78.2571
176.513672 80.753 65.1670
176.879883 77.900 40.1726
177.246094 77.193 0.0035
177.612305 79.827 -32.9915
177.978516 82.981 -51.0262
178.344727 85.640 -61.6564
178.710938 87.824 -69.0221
179.077148 89.652 -74.8246
179.443359 91.216 -79.8293
179.809570 92.574 -84.4171
180.175781 93.767 -88.7877
180.541992 94.820 -93.0480
180.908203 95.754 -97.2570
181.274414 96.583 -101.4492
181.640625 97.316 -105.6470
182.006836 97.962 -109.8611
182.373047 98.523 -114.0895
182.739258 99.003 -118.3168
183.105469 99.404 -122.5164
183.471680 99.730 -126.6564
183.837891 99.983 -130.7056
184.204102 100.169 -134.6371
184.570312 100.289 -138.4281
184.936523 100.347 -142.0553
185.302734 100.342 -145.4879
185.668945 100.276 -148.6821
186.035156 100.150 -151.5784
186.401367 99.967 -154.1029
186.767578 99.734 -156.1727
187.133789 99.463 -157.7047
187.500000 99.171 -158.6255
187.866211 98.878 -158.8855
188.232422 98.610 -158.4742
188.598633 98.395 -157.4348
188.964844 98.259 -155.8746
189.331055 98.222 -153.9619
189.697266 98.294 -151.9070
190.063477 98.473 -149.9276
190.429688 98.747 -148.2123
190.795898 99.095 -146.8950
191.162109 99.494 -146.0469
191.528320 99.923 -145.6855
191.894531 100.363 -145.7913
192.260742 100.800 -146.3239
192.626953 101.224 -147.2351
192.993164 101.628 -148.4747
193.359375 102.006 -149.9934
193.725586 102.355 -151.7433
194.091797 102.674 -153.6797
194.458008 102.961 -155.7633
194.824219 103.217 -157.9615
195.190430 103.442 -160.2491
195.556641 103.636 -162.6049
195.922852 103.800 -165.0079
196.289062 103.932 -167.4354
196.655273 104.034 -169.8611
197.021484 104.107 -172.2583
197.387695 104.152 -174.6027
197.753906 104.173 -176.8752
198.120117 104.171 -179.0613
198.486328 104.150 178.8512
198.852539 104.111 176.8734
199.218750 104.057 175.0159
199.584961 103.993 173.2860
199.951172 103.922 171.6847
200.317383 103.847 170.2051
200.683594 103.772 168.8344
201.049805 103.698 167.5568
201.416016 103.626 166.3577
201.782227 103.556 165.2261
202.148438 103.487 164.1547
202.514648 103.420 163.1404
202.880859 103.354 162.1846
203.247070 103.289 161.2922
203.613281 103.226 160.4697
203.979492 103.169 159.7208
204.345703 103.118 159.0417
204.711914 103.079 158.4196
205.078125 103.052 157.8340
205.444336 103.037 157.2622
205.810547 103.036 156.6829
206.176758 103.046 156.0767
206.542969 103.066 155.4250
206.909180 103.096 154.7083
207.275391 103.131 153.9067
207.641602 103.169 153.0052
208.007812 103.205 151.9980
208.374023 103.232 150.8921
208.740234 103.248 149.7058
209.106445 103.247 148.4659
209.472656 103.230 147.2021
209.838867 103.196 145.9431
210.205078 103.146 144.7140
210.571289 103.083 143.5347
210.937500 103.007 142.4202
211.303711 102.923 141.3805
211.669922 102.832 140.4211
212.036133 102.737 139.5424
212.402344 102.641 138.7389
212.768555 102.544 137.9999
213.134766 102.448 137.3103
213.500977 102.352 136.6561
213.867188 102.252 136.0294
214.233398 102.146 135.4338
214.599609 102.031 134.8877
214.965820 101.903 134.4225
215.332031 101.765 134.0786
215.698242 101.617 133.9005
216.064453 101.466 133.9288
216.430664 101.318 134.1951
216.796875 101.186 134.7122
217.163086 101.081 135.4674
217.529297 101.015 136.4163
217.895508 100.996 137.4846
218.261719 101.028 138.5787
218.627930 101.109 139.6050
218.994141 101.231 140.4885
219.360352 101.385 141.1846
219.726562 101.562 141.6786
220.092773 101.752 141.9761
220.458984 101.952 142.0909
220.825195 102.157 142.0348
221.191406 102.365 141.8147
221.557617 102.572 141.4366
221.923828 102.774 140.9116
222.290039 102.967 140.2614
222.656250 103.149 139.5183
223.022461 103.320 138.7196
223.388672 103.483 137.8975
223.754883 103.642 137.0699
224.121094 103.802 136.2362
224.487305 103.968 135.3774
224.853516 104.142 134.4633
225.219727 104.323 133.4592
225.585938 104.509 132.3335
225.952148 104.696 131.0601
226.318359 104.878 129.6226
226.684570 105.048 128.0187
227.050781 105.196 126.2681
227.416992 105.315 124.4170
227.783203 105.402 122.5370
228.149414 105.456 120.7146
228.515625 105.487 119.0305
228.881836 105.507 117.5350
229.248047 105.532 116.2289
229.614258 105.578 115.0587
229.980469 105.652 113.9326
230.346680 105.757 112.7494
230.712891 105.887 111.4233
231.079102 106.033 109.8958
231.445312 106.187 108.1290
231.811523 106.340 106.0968
232.177734 106.482 103.7787
232.543945 106.602 101.1660
232.910156 106.686 98.2720
233.276367 106.719 95.1404
233.642578 106.690 91.8488
234.008789 106.590 88.5028
234.375000 106.416 85.2260
234.741211 106.169 82.1467
235.107422 105.858 79.3850
235.473633 105.497 77.0396
235.839844 105.103 75.1770
236.206055 104.695 73.8263
236.572266 104.291 72.9799
236.938477 103.906 72.6023
237.304688 103.555 72.6409
237.670898 103.248 73.0321
238.037109 102.993 73.7013
238.403320 102.798 74.5582
238.769531 102.665 75.4985
239.135742 102.591 76.4155
239.501953 102.568 77.2197
239.868164 102.582 77.8571
240.234375 102.621 78.3152
240.600586 102.673 78.6194
240.966797 102.731 78.8209
241.333008 102.795 78.9832
241.699219 102.867 79.1647
242.065430 102.957 79.4023
242.431641 103.077 79.6942
242.797852 103.239 79.9912
243.164062 103.452 80.2036
243.530273 103.715 80.2206
243.896484 104.025 79.9380
244.262695 104.368 79.2773
244.628906 104.733 78.1931
244.995117 105.105 76.6665
245.361328 105.473 74.6970
245.727539 105.827 72.2954
246.093750 106.154 69.4821
246.459961 106.445 66.2876
246.826172 106.690 62.7557
247.192383 106.882 58.9442
247.558594 107.013 54.9235
247.924805 107.080 50.7742
248.291016 107.081 46.5822
248.657227 107.020 42.4326
249.023438 106.902 38.4036
249.389648 106.735 34.5592
249.755859 106.530 30.9445
250.122070 106.298 27.5818
250.488281 106.052 24.4707
250.854492 105.800 21.5918
251.220703 105.551 18.9136
251.586914 105.309 16.3993
251.953125 105.080 14.0140
252.319336 104.865 11.7275
252.685547 104.666 9.5142
253.051758 104.485 7.3508
253.417969 104.326 5.2137
253.784180 104.191 3.0767
254.150391 104.084 0.9088
254.516602 104.006 -1.3260
254.882812 103.961 -3.6707
255.249023 103.952 -6.1738
255.615234 103.978 -8.8889
255.981445 104.040 -11.8716
256.347656 104.136 -15.1750
256.713867 104.264 -18.8491
257.080078 104.421 -22.9388
257.446289 104.604 -27.4854
257.812500 104.809 -32.5260
258.178711 105.032 -38.0924
258.544922 105.269 -44.2081
258.911133 105.514 -50.8861
259.277344 105.764 -58.1273
259.643555 106.015 -65.9218
260.009766 106.262 -74.2485
260.375977 106.502 -83.0770
260.742188 106.731 -92.3658
261.108398 106.943 -102.0612
261.474609 107.133 -112.0963
261.840820 107.296 -122.3929
262.207031 107.426 -132.8623
262.573242 107.520 -143.4102
262.939453 107.573 -153.9409
263.305664 107.581 -164.3619
263.671875 107.544 -174.5869
264.038086 107.459 175.4618
264.404297 107.328 165.8516
264.770508 107.151 156.6393
265.136719 106.931 147.8699
265.502930 106.671 139.5770
265.869141 106.375 131.7823
266.235352 106.045 124.4971
266.601562 105.688 117.7239
266.967773 105.305 111.4607
267.333984 104.901 105.7037
267.700195 104.478 100.4501
268.066406 104.040 95.6974
268.432617 103.592 91.4414
268.798828 103.138 87.6752
269.165039 102.682 84.3885
269.531250 102.230 81.5712
269.897461 101.784 79.2168
270.263672 101.351 77.3224
270.629883 100.939 75.8818
270.996094 100.557 74.8730
271.362305 100.215 74.2483
271.728516 99.921 73.9338
272.094727 99.676 73.8444
272.460938 99.481 73.9028
272.827148 99.330 74.0535
273.193359 99.220 74.2590
273.559570 99.147 74.4874
273.925781 99.110 74.7004
274.291992 99.102 74.8564
274.658203 99.116 74.9259
275.024414 99.141 74.9086
275.390625 99.168 74.8408
275.756836 99.193 74.7875
276.123047 99.215 74.8243
276.489258 99.242 75.0178
276.855469 99.285 75.4084
277.221680 99.360 76.0005
277.587891 99.480 76.7566
277.954102 99.658 77.5980
278.320312 99.901 78.4137
278.686523 100.209 79.0796
279.052734 100.573 79.4829
279.418945 100.981 79.5432
279.785156 101.417 79.2222
280.151367 101.868 78.5193
280.517578 102.321 77.4617
280.883789 102.769 76.0919
281.250000 103.206 74.4581
281.616211 103.632 72.6072
281.982422 104.047 70.5765
282.348633 104.455 68.3881
282.714844 104.861 66.0446
283.081055 105.267 63.5293
283.447266 105.675 60.8125
283.813477 106.083 57.8597
284.179688 106.489 54.6404
284.545898 106.885 51.1331
284.912109 107.267 47.3269
285.278320 107.627 43.2230
285.644531 107.957 38.8340
286.010742 108.251 34.1854
286.376953 108.503 29.3168
286.743164 108.709 24.2793
287.109375 108.867 19.1326
287.475586 108.977 13.9377
287.841797 109.044 8.7498
288.208008 109.073 3.6111
288.574219 109.072 -1.4517
288.940430 109.048 -6.4277
289.306641 109.006 -11.3182
289.672852 108.952 -16.1312
290.039062 108.891 -20.8768
290.405273 108.826 -25.5657
290.771484 108.761 -30.2095
291.137695 108.699 -34.8228
291.503906 108.643 -39.4242
291.870117 108.597 -44.0358
292.236328 108.561 -48.6798
292.602539 108.536 -53.3762
292.968750 108.522 -58.1404
293.334961 108.520 -62.9843
293.701172 108.530 -67.9196
294.067383 108.552 -72.9607
294.433594 108.586 -78.1250
294.799805 108.632 -83.4299
295.166016 108.684 -88.8875
295.532227 108.740 -94.4990
295.898438 108.795 -100.2534
296.264648 108.845 -106.1279
296.630859 108.888 -112.0947
296.997070 108.923 -118.1245
297.363281 108.951 -124.1929
297.729492 108.971 -130.2783
298.095703 108.983 -136.3640
298.461914 108.987 -142.4331
298.828125 108.983 -148.4695
299.194336 108.970 -154.4565
299.560547 108.948 -160.3801
299.926758 108.919 -166.2278
