* Measurement data measured by REW V5.20.8
* Source: ASIO hdspfire, Analog 1 (1)
* Format: 4M Log Swept Sine, 1 sweep at -12.0 dBFS with no timing reference
* Dated: 13 juin 2022 14:00:15
* REW Settings:
*  C-weighting compensation: Off
*  Target level: 75.0 dB
* Note: ; 
* Measurement: off_0x1400_1_2 juin 13
* Smoothing: None
* Frequency Step: 0.36621094 Hz
* Start Frequency: 0.36621094 Hz
*
* Freq(Hz) SPL(dB) Phase(degrees)
0.366211 23.415 3.3945
0.732422 20.531 26.6341
1.098633 22.319 65.8287
1.464844 25.771 73.4322
1.831055 26.594 64.8864
2.197266 23.583 47.8844
2.563477 9.711 -47.1810
2.929688 26.173 -143.5179
3.295898 31.977 -164.1492
3.662109 34.377 179.1501
4.028320 34.723 165.5687
4.394531 33.514 157.3042
4.760742 31.570 156.7533
5.126953 30.097 155.4697
5.493164 28.540 128.4915
5.859375 30.988 60.3186
6.225586 37.970 15.7308
6.591797 43.076 -10.2338
6.958008 46.377 -30.3802
7.324219 48.356 -46.8368
7.690430 49.391 -59.0088
8.056641 49.988 -65.7155
8.422852 50.856 -67.8625
8.789062 52.343 -70.1291
9.155273 54.014 -76.0051
9.521484 55.346 -84.4950
9.887695 56.185 -92.5237
10.253906 56.787 -96.9352
10.620117 57.829 -97.0237
10.986328 59.779 -97.3103
11.352539 62.165 -102.4177
11.718750 64.297 -112.0314
12.084961 65.842 -123.7208
12.451172 66.708 -135.0034
12.817383 66.950 -143.2718
13.183594 66.900 -145.6071
13.549805 67.414 -141.2742
13.916016 69.179 -136.4906
14.282227 71.587 -137.7649
14.648438 73.803 -144.7393
15.014648 75.512 -154.8604
15.380859 76.665 -166.1650
15.747070 77.292 -177.2656
16.113281 77.451 173.0519
16.479492 77.264 166.0802
16.845703 76.997 162.9752
17.211914 77.097 163.4510
17.578125 77.880 164.4227
17.944336 79.127 162.3475
18.310547 80.363 156.4214
18.676758 81.271 147.8211
19.042969 81.711 138.1376
19.409180 81.654 128.9349
19.775391 81.153 121.8212
20.141602 80.398 118.3688
20.507812 79.766 119.2046
20.874023 79.635 122.5340
21.240234 79.962 125.3255
21.606445 80.387 126.7521
21.972656 80.723 128.3011
22.338867 81.119 131.4614
22.705078 81.869 135.7449
23.071289 83.031 138.9526
23.437500 84.348 139.8527
23.803711 85.572 139.1464
24.169922 86.679 138.1682
24.536133 87.810 137.6104
24.902344 89.120 136.9903
25.268555 90.622 135.1638
25.634766 92.193 131.4104
26.000977 93.690 125.8221
26.367188 95.036 118.9214
26.733398 96.212 111.2391
27.099609 97.237 103.1340
27.465820 98.130 94.7913
27.832031 98.906 86.3057
28.198242 99.569 77.7745
28.564453 100.126 69.3410
28.930664 100.595 61.1696
29.296875 101.006 53.3681
29.663086 101.398 45.9083
30.029297 101.798 38.6110
30.395508 102.207 31.2346
30.761719 102.599 23.6190
31.127930 102.939 15.7802
31.494141 103.203 7.8993
31.860352 103.392 0.2324
32.226562 103.528 -7.0061
32.592773 103.646 -13.7387
32.958984 103.778 -20.0532
33.325195 103.940 -26.1357
33.691406 104.125 -32.1488
34.057617 104.312 -38.1410
34.423828 104.486 -44.0485
34.790039 104.645 -49.7656
35.156250 104.800 -55.2236
35.522461 104.964 -60.4297
35.888672 105.145 -65.4498
36.254883 105.343 -70.3616
36.621094 105.553 -75.2192
36.987305 105.766 -80.0478
37.353516 105.977 -84.8579
37.719727 106.178 -89.6503
38.085938 106.362 -94.4052
38.452148 106.523 -99.0670
38.818359 106.663 -103.5524
39.184570 106.790 -107.7863
39.550781 106.926 -111.7528
39.916992 107.088 -115.5271
40.283203 107.285 -119.2564
40.649414 107.510 -123.0950
41.015625 107.743 -127.1333
41.381836 107.963 -131.3667
41.748047 108.152 -135.7140
42.114258 108.307 -140.0587
42.480469 108.430 -144.2927
42.846680 108.534 -148.3435
43.212891 108.636 -152.1873
43.579102 108.746 -155.8484
43.945312 108.874 -159.3877
44.311523 109.020 -162.8811
44.677734 109.184 -166.3951
45.043945 109.362 -169.9688
45.410156 109.547 -173.6129
45.776367 109.739 -177.3276
46.142578 109.937 178.8765
46.508789 110.141 174.9681
46.875000 110.348 170.9055
47.241211 110.549 166.6592
47.607422 110.736 162.2314
47.973633 110.901 157.6543
48.339844 111.043 152.9680
48.706055 111.165 148.1909
49.072266 111.269 143.3033
49.438477 111.354 138.2554
49.804688 111.411 132.9960
50.170898 111.426 127.5084
50.537109 111.381 121.8290
50.903320 111.265 116.0448
51.269531 111.071 110.2722
51.635742 110.801 104.6292
52.001953 110.464 99.2085
52.368164 110.071 94.0632
52.734375 109.634 89.2056
53.100586 109.159 84.6221
53.466797 108.650 80.2963
53.833008 108.106 76.2327
54.199219 107.525 72.4683
54.565430 106.911 69.0706
54.931641 106.275 66.1161
55.297852 105.635 63.6582
55.664062 105.019 61.6843
56.030273 104.451 60.0856
56.396484 103.949 58.6580
56.762695 103.511 57.1552
57.128906 103.116 55.3668
57.495117 102.733 53.1809
57.861328 102.328 50.5936
58.227539 101.879 47.6741
58.593750 101.367 44.5112
58.959961 100.781 41.1720
59.326172 100.107 37.6895
59.692383 99.324 34.0825
60.058594 98.403 30.3994
60.424805 97.302 26.7639
60.791016 95.973 23.4108
61.157227 94.357 20.7145
61.523438 92.378 19.2510
61.889648 89.926 20.0111
62.255859 86.823 25.1957
62.622070 82.981 41.1323
62.988281 80.420 80.1392
63.354492 83.006 117.8578
63.720703 86.620 132.5712
64.086914 89.428 137.0083
64.453125 91.544 137.4036
64.819336 93.166 136.0210
65.185547 94.433 133.8739
65.551758 95.446 131.4758
65.917969 96.284 129.0676
66.284180 97.005 126.7129
66.650391 97.649 124.3684
67.016602 98.234 121.9553
67.382812 98.766 119.4137
67.749023 99.245 116.7307
68.115234 99.669 113.9359
68.481445 100.038 111.0818
68.847656 100.359 108.2190
69.213867 100.638 105.3804
69.580078 100.883 102.5747
69.946289 101.100 99.7922
70.312500 101.291 97.0168
70.678711 101.456 94.2402
71.044922 101.594 91.4702
71.411133 101.704 88.7324
71.777344 101.788 86.0590
72.143555 101.853 83.4744
72.509766 101.905 80.9813
72.875977 101.950 78.5562
73.242188 101.992 76.1582
73.608398 102.029 73.7494
73.974609 102.056 71.3104
74.340820 102.071 68.8464
74.707031 102.072 66.3761
75.073242 102.062 63.9143
75.439453 102.042 61.4585
75.805664 102.013 58.9915
76.171875 101.973 56.4956
76.538086 101.918 53.9692
76.904297 101.845 51.4288
77.270508 101.758 48.8929
77.636719 101.662 46.3579
78.002930 101.561 43.7823
78.369141 101.454 41.0978
78.735352 101.330 38.2434
79.101562 101.173 35.2059
79.467773 100.967 32.0388
79.833984 100.700 28.8522
80.200195 100.372 25.7762
80.566406 99.996 22.9156
80.932617 99.591 20.3062
81.298828 99.175 17.8964
81.665039 98.758 15.5619
82.031250 98.336 13.1498
82.397461 97.893 10.5309
82.763672 97.401 7.6334
83.129883 96.833 4.4475
83.496094 96.160 1.0074
83.862305 95.354 -2.6387
84.228516 94.383 -6.4615
84.594727 93.208 -10.4801
84.960938 91.756 -14.7883
85.327148 89.900 -19.5851
85.693359 87.380 -25.2734
86.059570 83.586 -32.9996
86.425781 76.450 -49.6893
86.791992 71.191 -172.5419
87.158203 81.522 153.0804
87.524414 86.246 143.5720
87.890625 89.196 137.3970
88.256836 91.305 132.5957
88.623047 92.945 128.6201
88.989258 94.305 125.1440
89.355469 95.481 121.9012
89.721680 96.522 118.7000
90.087891 97.447 115.4475
90.454102 98.267 112.1359
90.820312 98.994 108.7998
91.186523 99.638 105.4751
91.552734 100.211 102.1830
91.918945 100.720 98.9381
92.285156 101.170 95.7645
92.651367 101.568 92.6995
93.017578 101.925 89.7787
93.383789 102.253 87.0110
93.750000 102.565 84.3647
94.116211 102.866 81.7804
94.482422 103.158 79.2028
94.848633 103.433 76.6111
95.214844 103.688 74.0244
95.581055 103.925 71.4783
95.947266 104.150 68.9906
96.313477 104.368 66.5425
96.679688 104.584 64.0852
97.045898 104.795 61.5702
97.412109 104.995 58.9771
97.778320 105.176 56.3217
98.144531 105.335 53.6427
98.510742 105.475 50.9777
98.876953 105.598 48.3467
99.243164 105.708 45.7509
99.609375 105.808 43.1808
99.975586 105.898 40.6274
100.341797 105.978 38.0850
100.708008 106.049 35.5475
101.074219 106.111 33.0066
101.440430 106.161 30.4551
101.806641 106.196 27.8954
102.172852 106.213 25.3483
102.539062 106.209 22.8502
102.905273 106.188 20.4426
103.271484 106.154 18.1541
103.637695 106.114 15.9882
104.003906 106.077 13.9220
104.370117 106.044 11.9176
104.736328 106.014 9.9402
105.102539 105.986 7.9711
105.468750 105.955 6.0096
105.834961 105.921 4.0653
106.201172 105.885 2.1450
106.567383 105.848 0.2449
106.933594 105.810 -1.6488
107.299805 105.770 -3.5507
107.666016 105.725 -5.4664
108.032227 105.673 -7.3862
108.398438 105.611 -9.2875
108.764648 105.540 -11.1423
109.130859 105.463 -12.9282
109.497070 105.384 -14.6368
109.863281 105.308 -16.2773
110.229492 105.239 -17.8755
110.595703 105.177 -19.4658
110.961914 105.120 -21.0817
111.328125 105.064 -22.7432
111.694336 105.004 -24.4498
112.060547 104.935 -26.1821
112.426758 104.858 -27.9108
112.792969 104.773 -29.6116
113.159180 104.684 -31.2777
113.525391 104.594 -32.9197
113.891602 104.503 -34.5554
114.257812 104.408 -36.1946
114.624023 104.306 -37.8298
114.990234 104.195 -39.4396
115.356445 104.078 -41.0013
115.722656 103.956 -42.5040
116.088867 103.832 -43.9519
116.455078 103.709 -45.3568
116.821289 103.586 -46.7272
117.187500 103.461 -48.0625
117.553711 103.334 -49.3546
117.919922 103.207 -50.5946
118.286133 103.081 -51.7782
118.652344 102.957 -52.9041
119.018555 102.837 -53.9716
119.384766 102.724 -54.9808
119.750977 102.622 -55.9393
120.117188 102.533 -56.8682
120.483398 102.461 -57.8033
120.849609 102.403 -58.7855
121.215820 102.356 -59.8468
121.582031 102.316 -60.9985
121.948242 102.275 -62.2316
122.314453 102.231 -63.5233
122.680664 102.183 -64.8511
123.046875 102.135 -66.2014
123.413086 102.089 -67.5754
123.779297 102.045 -68.9882
124.145508 102.005 -70.4624
124.511719 101.967 -72.0195
124.877930 101.927 -73.6720
125.244141 101.880 -75.4193
125.610352 101.823 -77.2509
125.976562 101.756 -79.1519
126.342773 101.675 -81.1091
126.708984 101.582 -83.1124
127.075195 101.474 -85.1508
127.441406 101.352 -87.2101
127.807617 101.215 -89.2737
128.173828 101.065 -91.3282
128.540039 100.904 -93.3698
128.906250 100.734 -95.4036
129.272461 100.552 -97.4360
129.638672 100.359 -99.4642
130.004883 100.152 -101.4718
130.371094 99.934 -103.4366
130.737305 99.706 -105.3445
131.103516 99.474 -107.2000
131.469727 99.240 -109.0236
131.835938 99.003 -110.8367
132.202148 98.762 -112.6467
132.568359 98.514 -114.4445
132.934570 98.261 -116.2174
133.300781 98.008 -117.9688
133.666992 97.757 -119.7257
134.033203 97.507 -121.5293
134.399414 97.253 -123.4110
134.765625 96.988 -125.3726
135.131836 96.705 -127.3842
135.498047 96.402 -129.3984
135.864258 96.084 -131.3727
136.230469 95.757 -133.2865
136.596680 95.427 -135.1483
136.962891 95.101 -136.9938
137.329102 94.781 -138.8781
137.695312 94.465 -140.8619
138.061523 94.144 -142.9927
138.427734 93.807 -145.2803
138.793945 93.443 -147.6829
139.160156 93.046 -150.1112
139.526367 92.623 -152.4591
139.892578 92.190 -154.6527
140.258789 91.769 -156.6968
140.625000 91.380 -158.6879
140.991211 91.032 -160.7799
141.357422 90.721 -163.1146
141.723633 90.434 -165.7683
142.089844 90.163 -168.7446
142.456055 89.905 -172.0104
142.822266 89.667 -175.5416
143.188477 89.461 -179.3501
143.554688 89.297 176.5228
143.920898 89.182 172.0312
144.287109 89.119 167.1520
144.653320 89.110 161.8954
145.019531 89.158 156.3013
145.385742 89.267 150.4283
145.751953 89.440 144.3433
146.118164 89.681 138.1140
146.484375 89.987 131.8030
146.850586 90.355 125.4624
147.216797 90.778 119.1317
147.583008 91.245 112.8412
147.949219 91.745 106.6183
148.315430 92.263 100.4937
148.681641 92.790 94.5010
149.047852 93.318 88.6707
149.414062 93.841 83.0194
149.780273 94.356 77.5454
150.146484 94.863 72.2288
150.512695 95.356 67.0425
150.878906 95.832 61.9646
151.245117 96.284 56.9874
151.611328 96.708 52.1183
151.977539 97.103 47.3734
152.343750 97.469 42.7682
152.709961 97.809 38.3093
153.076172 98.127 33.9917
153.442383 98.424 29.8016
153.808594 98.702 25.7217
154.174805 98.961 21.7373
154.541016 99.201 17.8392
154.907227 99.421 14.0232
155.273438 99.622 10.2885
155.639648 99.804 6.6353
156.005859 99.969 3.0630
156.372070 100.117 -0.4294
156.738281 100.248 -3.8436
157.104492 100.366 -7.1821
157.470703 100.470 -10.4493
157.836914 100.562 -13.6523
158.203125 100.642 -16.8020
158.569336 100.710 -19.9102
158.935547 100.764 -22.9857
159.301758 100.801 -26.0276
159.667969 100.820 -29.0208
160.034180 100.818 -31.9368
160.400391 100.798 -34.7406
160.766602 100.763 -37.4036
161.132812 100.722 -39.9159
161.499023 100.682 -42.2935
161.865234 100.646 -44.5736
162.231445 100.617 -46.8004
162.597656 100.591 -49.0070
162.963867 100.564 -51.2032
163.330078 100.535 -53.3771
163.696289 100.503 -55.5074
164.062500 100.472 -57.5830
164.428711 100.448 -59.6150
164.794922 100.437 -61.6423
165.161133 100.438 -63.7209
165.527344 100.448 -65.9066
165.893555 100.459 -68.2371
166.259766 100.463 -70.7219
166.625977 100.450 -73.3438
166.992188 100.417 -76.0669
167.358398 100.360 -78.8518
167.724609 100.281 -81.6680
168.090820 100.181 -84.4990
168.457031 100.063 -87.3447
168.823242 99.927 -90.2119
169.189453 99.771 -93.1055
169.555664 99.592 -96.0215
169.921875 99.388 -98.9441
170.288086 99.158 -101.8528
170.654297 98.904 -104.7290
171.020508 98.626 -107.5630
171.386719 98.327 -110.3550
171.752930 98.007 -113.1099
172.119141 97.665 -115.8330
172.485352 97.300 -118.5237
172.851562 96.912 -121.1768
173.217773 96.498 -123.7852
173.583984 96.060 -126.3440
173.950195 95.598 -128.8525
174.316406 95.112 -131.3130
174.682617 94.601 -133.7300
175.048828 94.066 -136.1147
175.415039 93.509 -138.4885
175.781250 92.926 -140.8892
176.147461 92.317 -143.3682
176.513672 91.673 -145.9844
176.879883 90.985 -148.7959
177.246094 90.240 -151.8562
177.612305 89.426 -155.2273
177.978516 88.529 -159.0007
178.344727 87.534 -163.3276
178.710938 86.423 -168.4521
179.077148 85.174 -174.7583
179.443359 83.770 177.1504
179.809570 82.232 166.3142
180.175781 80.691 151.3516
180.541992 79.545 131.1504
180.908203 79.405 107.3862
181.274414 80.437 85.2461
181.640625 82.112 68.0508
182.006836 83.910 55.3445
182.373047 85.607 45.6250
182.739258 87.141 37.7427
183.105469 88.511 30.9949
183.471680 89.732 24.9648
183.837891 90.825 19.3896
184.204102 91.806 14.0854
184.570312 92.687 8.9194
184.936523 93.471 3.7996
185.302734 94.160 -1.3203
185.668945 94.752 -6.4460
186.035156 95.244 -11.5469
186.401367 95.636 -16.5698
186.767578 95.932 -21.4473
187.133789 96.137 -26.1086
187.500000 96.258 -30.4834
187.866211 96.305 -34.5066
188.232422 96.291 -38.1230
188.598633 96.229 -41.2930
188.964844 96.137 -44.0002
189.331055 96.029 -46.2559
189.697266 95.920 -48.0984
190.063477 95.822 -49.5847
190.429688 95.741 -50.7786
190.795898 95.683 -51.7402
191.162109 95.651 -52.5247
191.528320 95.648 -53.1848
191.894531 95.675 -53.7817
192.260742 95.734 -54.3823
192.626953 95.819 -55.0562
192.993164 95.925 -55.8604
193.359375 96.043 -56.8308
193.725586 96.164 -57.9814
194.091797 96.281 -59.3098
194.458008 96.387 -60.8079
194.824219 96.477 -62.4663
195.190430 96.545 -64.2744
195.556641 96.584 -66.2117
195.922852 96.588 -68.2437
196.289062 96.552 -70.3191
196.655273 96.472 -72.3770
197.021484 96.349 -74.3540
197.387695 96.187 -76.1919
197.753906 95.987 -77.8396
198.120117 95.755 -79.2478
198.486328 95.496 -80.3682
198.852539 95.219 -81.1519
199.218750 94.935 -81.5610
199.584961 94.659 -81.5806
199.951172 94.406 -81.2295
200.317383 94.190 -80.5583
200.683594 94.021 -79.6433
201.049805 93.907 -78.5730
201.416016 93.851 -77.4453
201.782227 93.854 -76.3647
202.148438 93.911 -75.4385
202.514648 94.011 -74.7612
202.880859 94.143 -74.4006
203.247070 94.290 -74.3884
203.613281 94.437 -74.7239
203.979492 94.572 -75.3865
204.345703 94.684 -76.3452
204.711914 94.765 -77.5627
205.078125 94.807 -78.9944
205.444336 94.803 -80.5894
205.810547 94.747 -82.2898
206.176758 94.636 -84.0359
206.542969 94.465 -85.7659
206.909180 94.232 -87.4131
207.275391 93.933 -88.8977
207.641602 93.569 -90.1201
208.007812 93.139 -90.9570
208.374023 92.653 -91.2681
208.740234 92.128 -90.9146
209.106445 91.587 -89.7834
209.472656 91.066 -87.8206
209.838867 90.601 -85.0510
210.205078 90.227 -81.5933
210.571289 89.971 -77.6487
210.937500 89.848 -73.4744
211.303711 89.856 -69.3379
211.669922 89.977 -65.4697
212.036133 90.185 -62.0208
212.402344 90.451 -59.0508
212.768555 90.748 -56.5430
213.134766 91.061 -54.4421
213.500977 91.379 -52.6873
213.867188 91.696 -51.2312
214.233398 92.008 -50.0435
214.599609 92.309 -49.0957
214.965820 92.593 -48.3523
215.332031 92.855 -47.7637
215.698242 93.092 -47.2722
216.064453 93.305 -46.8167
216.430664 93.493 -46.3379
216.796875 93.662 -45.7764
217.163086 93.818 -45.0752
217.529297 93.970 -44.1851
217.895508 94.134 -43.0847
218.261719 94.323 -41.7944
218.627930 94.551 -40.3779
218.994141 94.825 -38.9219
219.360352 95.143 -37.5066
219.726562 95.506 -36.1914
220.092773 95.910 -35.0227
220.458984 96.357 -34.0598
220.825195 96.844 -33.3828
221.191406 97.361 -33.0791
221.557617 97.892 -33.2070
221.923828 98.419 -33.7732
222.290039 98.927 -34.7305
222.656250 99.404 -36.0049
223.022461 99.848 -37.5217
223.388672 100.258 -39.2273
223.754883 100.636 -41.0876
224.121094 100.980 -43.0764
224.487305 101.289 -45.1624
224.853516 101.563 -47.3037
225.219727 101.804 -49.4573
225.585938 102.017 -51.5930
225.952148 102.210 -53.7053
226.318359 102.384 -55.8108
226.684570 102.543 -57.9375
227.050781 102.681 -60.1055
227.416992 102.795 -62.3145
227.783203 102.879 -64.5400
228.149414 102.930 -66.7415
228.515625 102.948 -68.8704
228.881836 102.936 -70.8796
229.248047 102.899 -72.7307
229.614258 102.843 -74.3972
229.980469 102.776 -75.8718
230.346680 102.706 -77.1655
230.712891 102.638 -78.3086
231.079102 102.575 -79.3389
231.445312 102.515 -80.2913
231.811523 102.455 -81.1858
232.177734 102.393 -82.0261
232.543945 102.325 -82.8027
232.910156 102.252 -83.5020
233.276367 102.172 -84.1094
233.642578 102.087 -84.6128
234.008789 101.996 -84.9993
234.375000 101.901 -85.2512
234.741211 101.802 -85.3489
235.107422 101.703 -85.2690
235.473633 101.607 -84.9890
235.839844 101.520 -84.4915
236.206055 101.450 -83.7717
236.572266 101.405 -82.8440
236.938477 101.391 -81.7427
237.304688 101.412 -80.5093
237.670898 101.468 -79.1787
238.037109 101.558 -77.7620
238.403320 101.684 -76.2510
238.769531 101.853 -74.6370
239.135742 102.075 -72.9390
239.501953 102.363 -71.2231
239.868164 102.725 -69.6001
240.234375 103.161 -68.2080
240.600586 103.663 -67.1816
240.966797 104.217 -66.6306
241.333008 104.804 -66.6238
241.699219 105.403 -67.1848
242.065430 105.995 -68.2942
242.431641 106.563 -69.8989
242.797852 107.096 -71.9246
243.164062 107.587 -74.2908
243.530273 108.032 -76.9221
243.896484 108.433 -79.7566
244.262695 108.790 -82.7454
244.628906 109.106 -85.8523
244.995117 109.381 -89.0505
245.361328 109.618 -92.3184
245.727539 109.816 -95.6389
246.093750 109.977 -98.9971
246.459961 110.101 -102.3784
246.826172 110.185 -105.7651
247.192383 110.229 -109.1328
247.558594 110.231 -112.4475
247.924805 110.193 -115.6677
248.291016 110.114 -118.7454
248.657227 110.001 -121.6343
249.023438 109.858 -124.2935
249.389648 109.693 -126.6953
249.755859 109.515 -128.8271
250.122070 109.333 -130.6919
250.488281 109.155 -132.3069
250.854492 108.985 -133.6985
251.220703 108.830 -134.8992
251.586914 108.691 -135.9417
251.953125 108.572 -136.8584
252.319336 108.471 -137.6780
252.685547 108.390 -138.4265
253.051758 108.328 -139.1238
253.417969 108.285 -139.7869
253.784180 108.259 -140.4282
254.150391 108.251 -141.0603
254.516602 108.261 -141.6953
254.882812 108.288 -142.3481
255.249023 108.334 -143.0347
255.615234 108.397 -143.7690
255.981445 108.476 -144.5630
256.347656 108.572 -145.4263
256.713867 108.685 -146.3706
257.080078 108.815 -147.4126
257.446289 108.965 -148.5791
257.812500 109.134 -149.9067
258.178711 109.321 -151.4407
258.544922 109.522 -153.2275
258.911133 109.731 -155.3110
259.277344 109.939 -157.7249
259.643555 110.137 -160.4883
260.009766 110.315 -163.6057
260.375977 110.462 -167.0649
260.742188 110.569 -170.8416
261.108398 110.628 -174.9006
261.474609 110.630 -179.2017
261.840820 110.571 176.3022
262.207031 110.443 171.6604
262.573242 110.245 166.9280
262.939453 109.971 162.1638
263.305664 109.619 157.4329
263.671875 109.191 152.8010
264.038086 108.687 148.3342
264.404297 108.112 144.0908
264.770508 107.470 140.1179
265.136719 106.769 136.4453
265.502930 106.014 133.0825
265.869141 105.211 130.0203
266.235352 104.359 127.2305
266.601562 103.457 124.6753
266.967773 102.495 122.3132
267.333984 101.458 120.1099
267.700195 100.321 118.0469
268.066406 99.049 116.1313
268.432617 97.591 114.4092
268.798828 95.863 112.9939
269.165039 93.728 112.1492
269.531250 90.916 112.5808
269.897461 86.806 116.7708
270.263672 79.854 139.9077
270.629883 79.742 -132.8716
270.996094 86.799 -109.3264
271.362305 90.967 -105.6343
271.728516 93.795 -106.0154
272.094727 95.905 -107.8718
272.460938 97.571 -110.4404
272.827148 98.930 -113.4233
273.193359 100.062 -116.6873
273.559570 101.015 -120.1653
273.925781 101.820 -123.8164
274.291992 102.494 -127.6045
274.658203 103.049 -131.4912
275.024414 103.495 -135.4338
275.390625 103.837 -139.3867
275.756836 104.080 -143.3030
276.123047 104.229 -147.1331
276.489258 104.286 -150.8281
276.855469 104.256 -154.3350
277.221680 104.139 -157.5964
277.587891 103.939 -160.5486
277.954102 103.657 -163.1172
278.320312 103.296 -165.2114
278.686523 102.859 -166.7163
279.052734 102.352 -167.4844
279.418945 101.789 -167.3306
279.785156 101.196 -166.0378
280.151367 100.618 -163.3950
280.517578 100.128 -159.2812
280.883789 99.816 -153.8064
281.250000 99.770 -147.4316
281.616211 100.031 -140.9180
281.982422 100.571 -135.0503
282.348633 101.314 -130.3445
282.714844 102.174 -126.9719
283.081055 103.081 -124.8652
283.447266 103.989 -123.8574
283.813477 104.871 -123.7651
284.179688 105.712 -124.4263
284.545898 106.504 -125.7063
284.912109 107.242 -127.4968
285.278320 107.923 -129.7083
285.644531 108.548 -132.2664
286.010742 109.114 -135.1067
286.376953 109.623 -138.1702
286.743164 110.073 -141.4009
287.109375 110.465 -144.7434
287.475586 110.803 -148.1445
287.841797 111.087 -151.5542
288.208008 111.324 -154.9282
288.574219 111.517 -158.2302
288.940430 111.672 -161.4324
289.306641 111.794 -164.5129
289.672852 111.888 -167.4561
290.039062 111.960 -170.2500
290.405273 112.017 -172.8887
290.771484 112.063 -175.3738
291.137695 112.104 -177.7173
291.503906 112.147 -179.9417
291.870117 112.193 177.9255
292.236328 112.246 175.8542
292.602539 112.306 173.8193
292.968750 112.372 171.7986
293.334961 112.445 169.7717
293.701172 112.526 167.7139
294.067383 112.612 165.5969
294.433594 112.702 163.3906
294.799805 112.791 161.0730
295.166016 112.874 158.6333
295.532227 112.944 156.0774
295.898438 112.998 153.4209
296.264648 113.032 150.6843
296.630859 113.046 147.8877
296.997070 113.038 145.0464
297.363281 113.007 142.1746
297.729492 112.952 139.2864
298.095703 112.873 136.3999
298.461914 112.768 133.5347
298.828125 112.638 130.7102
299.194336 112.485 127.9402
299.560547 112.310 125.2336
299.926758 112.115 122.5933
