* Measurement data measured by REW V5.20.8
* Source: ASIO hdspfire, Analog 1 (1)
* Format: 4M Log Swept Sine, 1 sweep at -12.0 dBFS with no timing reference
* Dated: 13 juin 2022 14:11:20
* REW Settings:
*  C-weighting compensation: Off
*  Target level: 75.0 dB
* Note: ; 
* Measurement: off_0x1400_1_3 juin 13
* Smoothing: None
* Frequency Step: 0.36621094 Hz
* Start Frequency: 0.36621094 Hz
*
* Freq(Hz) SPL(dB) Phase(degrees)
0.366211 28.796 16.1906
0.732422 29.285 27.1850
1.098633 29.027 36.7812
1.464844 28.305 51.6245
1.831055 28.402 72.0097
2.197266 29.591 88.5949
2.563477 30.777 98.7601
2.929688 31.561 105.9330
3.295898 32.042 111.5693
3.662109 32.222 115.3459
4.028320 32.015 117.6479
4.394531 31.684 118.7599
4.760742 31.847 114.1011
5.126953 32.964 95.1770
5.493164 35.681 62.5648
5.859375 39.718 29.8399
6.225586 43.558 3.1985
6.591797 46.432 -18.7465
6.958008 48.188 -37.0499
7.324219 48.841 -50.8815
7.690430 48.628 -57.0490
8.056641 48.656 -51.8710
8.422852 50.582 -43.3652
8.789062 53.525 -44.6599
9.155273 56.008 -54.2424
9.521484 57.676 -67.1561
9.887695 58.598 -79.9260
10.253906 59.005 -89.7778
10.620117 59.385 -94.7784
10.986328 60.407 -96.2787
11.352539 62.206 -99.2328
11.718750 64.207 -106.2944
12.084961 65.898 -116.2208
12.451172 67.080 -126.6494
12.817383 67.772 -135.2691
13.183594 68.200 -140.0234
13.549805 68.857 -140.2568
13.916016 70.220 -138.7713
14.282227 72.166 -139.9379
14.648438 74.180 -145.1721
15.014648 75.913 -153.3887
15.380859 77.241 -163.1146
15.747070 78.151 -173.1555
16.113281 78.678 177.4658
16.479492 78.899 169.6440
16.845703 78.960 164.1493
17.211914 79.095 161.1921
17.578125 79.549 159.7326
17.944336 80.373 157.6914
18.310547 81.368 153.5342
18.676758 82.267 147.1930
19.042969 82.895 139.5743
19.409180 83.192 131.9112
19.775391 83.200 125.4474
20.141602 83.072 121.1348
20.507812 83.050 119.0349
20.874023 83.316 117.8735
21.240234 83.820 115.9116
21.606445 84.342 112.4684
21.972656 84.690 108.1664
22.338867 84.810 104.2024
22.705078 84.788 101.6354
23.071289 84.804 100.7815
23.437500 85.012 100.9199
23.803711 85.393 100.9377
24.169922 85.826 100.4336
24.536133 86.225 99.9376
24.902344 86.635 100.2068
25.268555 87.206 101.3462
25.634766 88.052 102.4686
26.000977 89.134 102.3975
26.367188 90.310 100.6156
26.733398 91.461 97.3318
27.099609 92.533 92.9918
27.465820 93.521 87.9291
27.832031 94.430 82.3071
28.198242 95.256 76.2217
28.564453 95.989 69.8105
28.930664 96.628 63.2765
29.296875 97.191 56.8230
29.663086 97.709 50.5534
30.029297 98.216 44.4101
30.395508 98.727 38.2140
30.761719 99.229 31.7923
31.127930 99.694 25.1042
31.494141 100.096 18.2729
31.860352 100.431 11.5205
32.226562 100.714 5.0571
32.592773 100.974 -1.0181
32.958984 101.240 -6.7559
33.325195 101.529 -12.3080
33.691406 101.836 -17.8191
34.057617 102.143 -23.3401
34.423828 102.435 -28.8176
34.790039 102.709 -34.1498
35.156250 102.973 -39.2570
35.522461 103.240 -44.1228
35.888672 103.520 -48.7906
36.254883 103.818 -53.3323
36.621094 104.132 -57.8165
36.987305 104.455 -62.2969
37.353516 104.781 -66.8091
37.719727 105.098 -71.3655
38.085938 105.396 -75.9396
38.452148 105.666 -80.4606
38.818359 105.910 -84.8295
39.184570 106.139 -88.9625
39.550781 106.374 -92.8423
39.916992 106.632 -96.5432
40.283203 106.921 -100.2084
40.649414 107.234 -103.9814
41.015625 107.552 -107.9385
41.381836 107.855 -112.0625
41.748047 108.129 -116.2646
42.114258 108.372 -120.4313
42.480469 108.592 -124.4686
42.846680 108.802 -128.3301
43.212891 109.019 -132.0233
43.579102 109.251 -135.5978
43.945312 109.501 -139.1210
44.311523 109.765 -142.6522
44.677734 110.043 -146.2262
45.043945 110.331 -149.8516
45.410156 110.629 -153.5270
45.776367 110.940 -157.2663
46.142578 111.266 -161.1137
46.508789 111.607 -165.1379
46.875000 111.953 -169.4019
47.241211 112.292 -173.9294
47.607422 112.610 -178.6905
47.973633 112.900 176.3824
48.339844 113.165 171.3542
48.706055 113.413 166.2454
49.072266 113.652 161.0126
49.438477 113.882 155.5663
49.804688 114.090 149.8180
50.170898 114.259 143.7302
50.537109 114.365 137.3407
50.903320 114.393 130.7534
51.269531 114.335 124.1063
51.635742 114.193 117.5333
52.001953 113.978 111.1332
52.368164 113.703 104.9546
52.734375 113.377 99.0011
53.100586 113.008 93.2537
53.466797 112.595 87.6990
53.833008 112.137 82.3481
54.199219 111.633 77.2391
54.565430 111.087 72.4244
54.931641 110.505 67.9550
55.297852 109.898 63.8665
55.664062 109.276 60.1759
56.030273 108.654 56.8794
56.396484 108.045 53.9470
56.762695 107.463 51.3108
57.128906 106.917 48.8591
57.495117 106.408 46.4506
57.861328 105.928 43.9517
58.227539 105.460 41.2753
58.593750 104.983 38.3992
58.959961 104.478 35.3526
59.326172 103.933 32.1859
59.692383 103.338 28.9467
60.058594 102.685 25.6773
60.424805 101.964 22.4307
60.791016 101.165 19.2906
61.157227 100.278 16.3770
61.523438 99.300 13.8259
61.889648 98.235 11.7547
62.255859 97.084 10.2372
62.622070 95.840 9.3274
62.988281 94.481 9.1534
63.354492 92.972 10.0667
63.720703 91.294 12.7930
64.086914 89.505 18.4773
64.453125 87.830 28.2861
64.819336 86.683 42.0305
65.185547 86.367 56.9905
65.551758 86.733 70.1052
65.917969 87.456 80.5114
66.284180 88.352 88.5952
66.650391 89.347 94.6445
67.016602 90.374 98.7530
67.382812 91.354 101.1469
67.749023 92.230 102.2685
68.115234 92.987 102.6289
68.481445 93.648 102.6269
68.847656 94.251 102.4443
69.213867 94.831 102.0496
69.580078 95.397 101.3056
69.946289 95.935 100.1107
70.312500 96.420 98.4821
70.678711 96.836 96.5470
71.044922 97.176 94.4797
71.411133 97.452 92.4360
71.777344 97.678 90.5134
72.143555 97.874 88.7451
72.509766 98.054 87.1159
72.875977 98.229 85.5842
73.242188 98.405 84.0974
73.608398 98.584 82.6019
73.974609 98.764 81.0524
74.340820 98.941 79.4240
74.707031 99.111 77.7156
75.073242 99.274 75.9419
75.439453 99.427 74.1140
75.805664 99.574 72.2271
76.171875 99.714 70.2639
76.538086 99.842 68.2148
76.904297 99.953 66.0955
77.270508 100.049 63.9418
77.636719 100.137 61.7817
78.002930 100.224 59.5991
78.369141 100.318 57.3224
78.735352 100.414 54.8537
79.101562 100.495 52.1260
79.467773 100.542 49.1506
79.833984 100.536 46.0248
80.200195 100.472 42.8975
80.566406 100.358 39.9111
80.932617 100.214 37.1457
81.298828 100.063 34.5887
81.665039 99.919 32.1484
82.031250 99.784 29.7042
82.397461 99.652 27.1654
82.763672 99.510 24.5005
83.129883 99.350 21.7259
83.496094 99.169 18.8693
83.862305 98.971 15.9329
84.228516 98.756 12.8746
84.594727 98.524 9.6182
84.960938 98.263 6.0822
85.327148 97.955 2.2159
85.693359 97.577 -1.9772
86.059570 97.108 -6.4338
86.425781 96.532 -11.0450
86.791992 95.841 -15.6852
87.158203 95.039 -20.2535
87.524414 94.135 -24.7199
87.890625 93.139 -29.1660
88.256836 92.052 -33.8030
88.623047 90.856 -38.9643
88.989258 89.515 -45.1023
89.355469 87.979 -52.8571
89.721680 86.207 -63.2848
90.087891 84.248 -78.2780
90.454102 82.478 -100.5692
90.820312 81.907 -130.0283
91.186523 83.117 -158.2773
91.552734 85.179 -178.9238
91.918945 87.226 166.7383
92.285156 88.995 156.2241
92.651367 90.476 148.0671
93.017578 91.721 141.5120
93.383789 92.792 136.1145
93.750000 93.742 131.5363
94.116211 94.606 127.4877
94.482422 95.400 123.7511
94.848633 96.127 120.2100
95.214844 96.791 116.8376
95.581055 97.401 113.6470
95.947266 97.972 110.6304
96.313477 98.519 107.7274
96.679688 99.048 104.8395
97.045898 99.558 101.8748
97.412109 100.038 98.7915
97.778320 100.478 95.6083
98.144531 100.874 92.3843
98.510742 101.227 89.1841
98.876953 101.544 86.0515
99.243164 101.834 82.9988
99.609375 102.101 80.0142
99.975586 102.351 77.0758
100.341797 102.584 74.1646
100.708008 102.800 71.2693
101.074219 102.999 68.3864
101.440430 103.181 65.5161
101.806641 103.345 62.6616
102.172852 103.491 59.8254
102.539062 103.619 57.0114
102.905273 103.729 54.2253
103.271484 103.820 51.4768
103.637695 103.893 48.7787
104.003906 103.950 46.1444
104.370117 103.994 43.5808
104.736328 104.028 41.0837
105.102539 104.053 38.6390
105.468750 104.069 36.2312
105.834961 104.073 33.8555
106.201172 104.063 31.5250
106.567383 104.038 29.2665
106.933594 104.002 27.1050
107.299805 103.959 25.0496
107.666016 103.914 23.0862
108.032227 103.868 21.1866
108.398438 103.822 19.3262
108.764648 103.770 17.4989
109.130859 103.710 15.7213
109.497070 103.641 14.0227
109.863281 103.567 12.4287
110.229492 103.493 10.9493
110.595703 103.424 9.5747
110.961914 103.363 8.2777
111.328125 103.314 7.0234
111.694336 103.275 5.7766
112.060547 103.243 4.5112
112.426758 103.213 3.2159
112.792969 103.181 1.8979
113.159180 103.145 0.5790
113.525391 103.105 -0.7130
113.891602 103.062 -1.9569
114.257812 103.020 -3.1476
114.624023 102.983 -4.2979
114.990234 102.951 -5.4302
115.356445 102.923 -6.5651
115.722656 102.895 -7.7113
116.088867 102.866 -8.8611
116.455078 102.832 -9.9954
116.821289 102.794 -11.0907
117.187500 102.755 -12.1296
117.553711 102.718 -13.1060
117.919922 102.686 -14.0270
118.286133 102.662 -14.9086
118.652344 102.646 -15.7682
119.018555 102.636 -16.6174
119.384766 102.633 -17.4604
119.750977 102.638 -18.2975
120.117188 102.651 -19.1329
120.483398 102.674 -19.9800
120.849609 102.707 -20.8600
121.215820 102.748 -21.7938
121.582031 102.794 -22.7919
121.948242 102.842 -23.8485
122.314453 102.888 -24.9462
122.680664 102.934 -26.0653
123.046875 102.981 -27.1956
123.413086 103.032 -28.3413
123.779297 103.089 -29.5187
124.145508 103.150 -30.7458
124.511719 103.216 -32.0354
124.877930 103.282 -33.3909
125.244141 103.348 -34.8107
125.610352 103.413 -36.2939
125.976562 103.476 -37.8446
126.342773 103.537 -39.4700
126.708984 103.592 -41.1747
127.075195 103.640 -42.9562
127.441406 103.676 -44.8016
127.807617 103.699 -46.6920
128.173828 103.709 -48.6063
128.540039 103.707 -50.5272
128.906250 103.694 -52.4441
129.272461 103.672 -54.3528
129.638672 103.642 -56.2523
130.004883 103.603 -58.1423
130.371094 103.556 -60.0197
130.737305 103.501 -61.8773
131.103516 103.438 -63.7062
131.469727 103.369 -65.4980
131.835938 103.295 -67.2501
132.202148 103.219 -68.9659
132.568359 103.140 -70.6542
132.934570 103.058 -72.3221
133.300781 102.974 -73.9706
133.666992 102.884 -75.5928
134.033203 102.790 -77.1768
134.399414 102.692 -78.7113
134.765625 102.593 -80.1896
135.131836 102.493 -81.6082
135.498047 102.395 -82.9644
135.864258 102.301 -84.2544
136.230469 102.213 -85.4769
136.596680 102.136 -86.6399
136.962891 102.073 -87.7634
137.329102 102.026 -88.8765
137.695312 101.993 -90.0070
138.061523 101.975 -91.1741
138.427734 101.970 -92.3894
138.793945 101.979 -93.6667
139.160156 102.000 -95.0293
139.526367 102.032 -96.5068
139.892578 102.069 -98.1193
140.258789 102.104 -99.8616
140.625000 102.131 -101.6990
140.991211 102.151 -103.5841
141.357422 102.167 -105.4835
141.723633 102.188 -107.3988
142.089844 102.217 -109.3663
142.456055 102.253 -111.4323
142.822266 102.288 -113.6215
143.188477 102.317 -115.9196
143.554688 102.338 -118.2831
143.920898 102.352 -120.6677
144.287109 102.368 -123.0592
144.653320 102.394 -125.4854
145.019531 102.433 -128.0042
145.385742 102.483 -130.6758
145.751953 102.535 -133.5393
146.118164 102.583 -136.6031
146.484375 102.620 -139.8523
146.850586 102.639 -143.2584
147.216797 102.638 -146.7870
147.583008 102.616 -150.3992
147.949219 102.575 -154.0546
148.315430 102.519 -157.7200
148.681641 102.454 -161.3810
149.047852 102.388 -165.0504
149.414062 102.323 -168.7628
149.780273 102.259 -172.5563
150.146484 102.191 -176.4498
150.512695 102.115 179.5682
150.878906 102.028 175.5352
151.245117 101.933 171.4913
151.611328 101.836 167.4583
151.977539 101.745 163.4266
152.343750 101.663 159.3628
152.709961 101.591 155.2290
153.076172 101.526 151.0026
153.442383 101.462 146.6853
153.808594 101.398 142.2963
154.174805 101.334 137.8588
154.541016 101.271 133.3893
154.907227 101.212 128.8932
155.273438 101.158 124.3699
155.639648 101.110 119.8186
156.005859 101.068 115.2430
156.372070 101.032 110.6504
156.738281 101.002 106.0480
157.104492 100.980 101.4406
157.470703 100.965 96.8304
157.836914 100.959 92.2188
158.203125 100.959 87.6077
158.569336 100.966 83.0005
158.935547 100.979 78.4005
159.301758 100.996 73.8108
159.667969 101.016 69.2357
160.034180 101.038 64.6829
160.400391 101.059 60.1650
160.766602 101.078 55.6996
161.132812 101.097 51.3043
161.499023 101.116 46.9927
161.865234 101.137 42.7693
162.231445 101.163 38.6298
162.597656 101.196 34.5637
162.963867 101.234 30.5598
163.330078 101.280 26.6084
163.696289 101.332 22.7002
164.062500 101.391 18.8226
164.428711 101.459 14.9570
164.794922 101.533 11.0781
165.161133 101.612 7.1610
165.527344 101.690 3.1885
165.893555 101.764 -0.8435
166.259766 101.829 -4.9260
166.625977 101.883 -9.0435
166.992188 101.924 -13.1825
167.358398 101.954 -17.3379
167.724609 101.972 -21.5148
168.090820 101.975 -25.7227
168.457031 101.963 -29.9680
168.823242 101.930 -34.2476
169.189453 101.872 -38.5455
169.555664 101.789 -42.8374
169.921875 101.677 -47.0953
170.288086 101.540 -51.2950
170.654297 101.377 -55.4203
171.020508 101.192 -59.4619
171.386719 100.985 -63.4148
171.752930 100.756 -67.2731
172.119141 100.507 -71.0271
172.485352 100.238 -74.6641
172.851562 99.951 -78.1703
173.217773 99.649 -81.5363
173.583984 99.335 -84.7576
173.950195 99.011 -87.8341
174.316406 98.681 -90.7683
174.682617 98.349 -93.5647
175.048828 98.017 -96.2341
175.415039 97.690 -98.7996
175.781250 97.372 -101.2998
176.147461 97.062 -103.7853
176.513672 96.757 -106.3043
176.879883 96.451 -108.8900
177.246094 96.136 -111.5515
177.612305 95.806 -114.2787
177.978516 95.458 -117.0552
178.344727 95.090 -119.8704
178.710938 94.699 -122.7245
179.077148 94.281 -125.6195
179.443359 93.831 -128.5450
179.809570 93.342 -131.4683
180.175781 92.812 -134.3378
180.541992 92.242 -137.1033
180.908203 91.638 -139.7396
181.274414 91.006 -142.2649
181.640625 90.346 -144.7335
182.006836 89.649 -147.2068
182.373047 88.900 -149.7120
182.739258 88.077 -152.2157
183.105469 87.159 -154.6213
183.471680 86.132 -156.7920
183.837891 84.983 -158.5762
184.204102 83.695 -159.8104
184.570312 82.237 -160.2626
184.936523 80.559 -159.4661
185.302734 78.605 -156.3707
185.668945 76.403 -148.7395
186.035156 74.428 -133.1532
186.401367 73.978 -110.7999
186.767578 75.425 -93.1328
187.133789 77.424 -85.2904
187.500000 79.167 -84.1809
187.866211 80.504 -86.8646
188.232422 81.462 -91.7563
188.598633 82.098 -98.0533
188.964844 82.463 -105.3595
189.331055 82.598 -113.5106
189.697266 82.539 -122.4930
190.063477 82.318 -132.3995
190.429688 81.970 -143.3992
190.795898 81.544 -155.7008
191.162109 81.109 -169.4840
191.528320 80.765 175.2321
191.894531 80.627 158.7668
192.260742 80.781 141.8574
192.626953 81.236 125.4523
192.993164 81.922 110.3104
193.359375 82.734 96.7717
193.725586 83.577 84.8253
194.091797 84.387 74.2916
194.458008 85.126 64.9563
194.824219 85.777 56.6273
195.190430 86.335 49.1493
195.556641 86.798 42.4031
195.922852 87.169 36.3065
196.289062 87.452 30.8145
196.655273 87.652 25.9147
197.021484 87.777 21.6162
197.387695 87.839 17.9318
197.753906 87.851 14.8632
198.120117 87.826 12.3995
198.486328 87.774 10.5309
198.852539 87.705 9.2675
199.218750 87.632 8.6443
199.584961 87.577 8.6942
199.951172 87.572 9.3921
200.317383 87.648 10.6055
200.683594 87.828 12.0941
201.049805 88.113 13.5776
201.416016 88.487 14.8262
201.782227 88.923 15.7074
202.148438 89.400 16.1725
202.514648 89.897 16.2158
202.880859 90.401 15.8461
203.247070 90.896 15.0831
203.613281 91.371 13.9634
203.979492 91.815 12.5430
204.345703 92.222 10.8894
204.711914 92.588 9.0695
205.078125 92.913 7.1400
205.444336 93.197 5.1472
205.810547 93.441 3.1322
206.176758 93.645 1.1359
206.542969 93.812 -0.7987
206.909180 93.943 -2.6285
207.275391 94.043 -4.3134
207.641602 94.117 -5.8173
208.007812 94.171 -7.1078
208.374023 94.214 -8.1573
208.740234 94.255 -8.9501
209.106445 94.306 -9.4915
209.472656 94.377 -9.8145
209.838867 94.477 -9.9755
210.205078 94.611 -10.0402
210.571289 94.778 -10.0687
210.937500 94.980 -10.1121
211.303711 95.217 -10.2190
211.669922 95.488 -10.4471
212.036133 95.789 -10.8619
212.402344 96.114 -11.5247
212.768555 96.451 -12.4762
213.134766 96.789 -13.7302
213.500977 97.118 -15.2775
213.867188 97.431 -17.0979
214.233398 97.721 -19.1685
214.599609 97.981 -21.4658
214.965820 98.206 -23.9609
215.332031 98.390 -26.6146
215.698242 98.528 -29.3778
216.064453 98.619 -32.1962
216.430664 98.662 -35.0171
216.796875 98.659 -37.7942
217.163086 98.612 -40.4893
217.529297 98.523 -43.0706
217.895508 98.396 -45.5106
218.261719 98.233 -47.7850
218.627930 98.035 -49.8716
218.994141 97.804 -51.7477
219.360352 97.540 -53.3853
219.726562 97.245 -54.7426
220.092773 96.919 -55.7620
220.458984 96.568 -56.3718
220.825195 96.201 -56.4972
221.191406 95.833 -56.0724
221.557617 95.482 -55.0532
221.923828 95.171 -53.4259
222.290039 94.927 -51.2183
222.656250 94.778 -48.5236
223.022461 94.751 -45.5256
223.388672 94.859 -42.4978
223.754883 95.096 -39.7473
224.121094 95.434 -37.5225
224.487305 95.833 -35.9443
224.853516 96.257 -35.0029
225.219727 96.680 -34.6055
225.585938 97.087 -34.6393
225.952148 97.473 -35.0132
226.318359 97.838 -35.6692
226.684570 98.177 -36.5696
227.050781 98.486 -37.6742
227.416992 98.761 -38.9250
227.783203 98.999 -40.2455
228.149414 99.203 -41.5536
228.515625 99.382 -42.7799
228.881836 99.546 -43.8806
229.248047 99.708 -44.8441
229.614258 99.879 -45.6881
229.980469 100.071 -46.4563
230.346680 100.290 -47.2139
230.712891 100.541 -48.0425
231.079102 100.823 -49.0322
231.445312 101.130 -50.2671
231.811523 101.453 -51.8119
232.177734 101.779 -53.7050
232.543945 102.097 -55.9597
232.910156 102.395 -58.5706
233.276367 102.663 -61.5166
233.642578 102.891 -64.7632
234.008789 103.070 -68.2607
234.375000 103.193 -71.9448
234.741211 103.259 -75.7429
235.107422 103.268 -79.5845
235.473633 103.225 -83.4128
235.839844 103.135 -87.1924
236.206055 103.005 -90.9106
236.572266 102.839 -94.5703
236.938477 102.642 -98.1836
237.304688 102.416 -101.7632
237.670898 102.162 -105.3269
238.037109 101.885 -108.9053
238.403320 101.586 -112.5488
238.769531 101.266 -116.3335
239.135742 100.921 -120.3550
239.501953 100.543 -124.7222
239.868164 100.117 -129.5508
240.234375 99.629 -134.9634
240.600586 99.060 -141.1011
240.966797 98.389 -148.1421
241.333008 97.601 -156.3323
241.699219 96.686 -166.0317
242.065430 95.659 -177.7683
242.431641 94.594 167.7502
242.797852 93.672 149.8726
243.164062 93.209 128.8269
243.530273 93.481 106.6775
243.896484 94.439 86.3608
244.262695 95.772 69.3943
244.628906 97.201 55.6067
244.995117 98.577 44.2261
245.361328 99.847 34.5312
245.727539 100.998 25.9932
246.093750 102.034 18.2444
246.459961 102.962 11.0334
246.826172 103.787 4.1904
247.192383 104.512 -2.3909
247.558594 105.139 -8.7659
247.924805 105.667 -14.9463
248.291016 106.100 -20.9126
248.657227 106.442 -26.6243
249.023438 106.699 -32.0327
249.389648 106.881 -37.0911
249.755859 106.998 -41.7603
250.122070 107.062 -46.0151
250.488281 107.087 -49.8438
250.854492 107.084 -53.2483
251.220703 107.066 -56.2432
251.586914 107.043 -58.8547
251.953125 107.025 -61.1213
252.319336 107.019 -63.0889
252.685547 107.032 -64.8098
253.051758 107.065 -66.3345
253.417969 107.122 -67.7104
253.784180 107.203 -68.9778
254.150391 107.307 -70.1707
254.516602 107.433 -71.3201
254.882812 107.583 -72.4526
255.249023 107.753 -73.5940
255.615234 107.944 -74.7639
255.981445 108.153 -75.9778
256.347656 108.380 -77.2471
256.713867 108.625 -78.5820
257.080078 108.888 -79.9973
257.446289 109.170 -81.5134
257.812500 109.471 -83.1606
258.178711 109.792 -84.9744
258.544922 110.129 -86.9949
258.911133 110.480 -89.2627
259.277344 110.837 -91.8149
259.643555 111.195 -94.6819
260.009766 111.544 -97.8823
260.375977 111.875 -101.4209
260.742188 112.176 -105.2834
261.108398 112.439 -109.4390
261.474609 112.655 -113.8420
261.840820 112.819 -118.4392
262.207031 112.926 -123.1726
262.573242 112.976 -127.9846
262.939453 112.967 -132.8210
263.305664 112.901 -137.6272
263.671875 112.778 -142.3506
264.038086 112.602 -146.9363
264.404297 112.378 -151.3320
264.770508 112.112 -155.4900
265.136719 111.814 -159.3748
265.502930 111.493 -162.9700
265.869141 111.162 -166.2805
266.235352 110.828 -169.3354
266.601562 110.501 -172.1792
266.967773 110.184 -174.8674
267.333984 109.880 -177.4558
267.700195 109.585 -179.9939
268.066406 109.298 177.4783
268.432617 109.015 174.9319
268.798828 108.731 172.3469
269.165039 108.442 169.7117
269.531250 108.143 167.0190
269.897461 107.830 164.2676
270.263672 107.500 161.4595
270.629883 107.147 158.6018
270.996094 106.769 155.7065
271.362305 106.361 152.7866
271.728516 105.922 149.8545
272.094727 105.449 146.9177
272.460938 104.938 143.9788
272.827148 104.385 141.0359
273.193359 103.779 138.0916
273.559570 103.111 135.1628
273.925781 102.363 132.2932
274.291992 101.518 129.5706
274.658203 100.555 127.1448
275.024414 99.455 125.2554
275.390625 98.203 124.2642
275.756836 96.802 124.7019
276.123047 95.296 127.2925
276.489258 93.812 132.8384
276.855469 92.608 141.6733
277.221680 91.993 152.6445
277.587891 92.070 163.0859
277.954102 92.614 170.8289
278.320312 93.318 175.4558
278.686523 93.983 177.5708
279.052734 94.522 177.9358
279.418945 94.905 177.1692
279.785156 95.131 175.7239
280.151367 95.210 173.9297
280.517578 95.157 172.0283
280.883789 94.988 170.1980
281.250000 94.721 168.5659
281.616211 94.375 167.2195
281.982422 93.968 166.2119
282.348633 93.517 165.5605
282.714844 93.039 165.2451
283.081055 92.547 165.1978
283.447266 92.047 165.3076
283.813477 91.535 165.4351
284.179688 90.991 165.4460
284.545898 90.383 165.2480
284.912109 89.663 164.8206
285.278320 88.769 164.2461
285.644531 87.616 163.7542
286.010742 86.090 163.8386
286.376953 84.016 165.5913
286.743164 81.134 171.8372
287.109375 77.409 -168.8389
287.475586 75.987 -124.8562
287.841797 79.523 -92.5808
288.208008 83.088 -81.4236
288.574219 85.734 -77.9878
288.940430 87.716 -77.3826
289.306641 89.244 -77.9187
289.672852 90.450 -78.8845
290.039062 91.419 -79.9175
290.405273 92.211 -80.7937
290.771484 92.872 -81.3608
291.137695 93.448 -81.5212
291.503906 93.979 -81.2449
291.870117 94.504 -80.5779
292.236328 95.051 -79.6353
292.602539 95.640 -78.5725
292.968750 96.276 -77.5513
293.334961 96.959 -76.7163
293.701172 97.682 -76.1851
294.067383 98.433 -76.0491
294.433594 99.197 -76.3687
294.799805 99.958 -77.1675
295.166016 100.699 -78.4290
295.532227 101.408 -80.1035
295.898438 102.075 -82.1230
296.264648 102.697 -84.4148
296.630859 103.272 -86.9148
296.997070 103.801 -89.5701
297.363281 104.286 -92.3401
297.729492 104.729 -95.1912
298.095703 105.132 -98.0942
298.461914 105.499 -101.0247
298.828125 105.833 -103.9634
299.194336 106.136 -106.9004
299.560547 106.414 -109.8357
299.926758 106.667 -112.7786
