* Measurement data measured by REW V5.20.8
* Source: ASIO hdspfire, Analog 1 (1)
* Format: 4M Log Swept Sine, 1 sweep at -12.0 dBFS with no timing reference
* Dated: 13 juin 2022 13:56:27
* REW Settings:
*  C-weighting compensation: Off
*  Target level: 75.0 dB
* Note: ; 
* Measurement: off_0x1400_4_1 juin 13
* Smoothing: None
* Frequency Step: 0.36621094 Hz
* Start Frequency: 0.36621094 Hz
*
* Freq(Hz) SPL(dB) Phase(degrees)
0.366211 13.965 157.2363
0.732422 2.747 132.3286
1.098633 9.781 -60.9069
1.464844 16.680 -79.1323
1.831055 19.064 -91.6114
2.197266 19.895 -97.6059
2.563477 20.474 -99.2673
2.929688 20.900 -102.2796
3.295898 20.309 -106.9115
3.662109 18.013 -104.1734
4.028320 16.140 -76.6710
4.394531 18.508 -52.9042
4.760742 19.403 -42.2336
5.126953 20.495 -2.4111
5.493164 28.557 20.1255
5.859375 35.139 10.6361
6.225586 39.625 -7.1747
6.591797 42.587 -26.9562
6.958008 44.301 -45.9968
7.324219 44.899 -61.6069
7.690430 44.670 -69.4445
8.056641 44.852 -65.2987
8.422852 47.114 -58.6221
8.789062 50.261 -62.1745
9.155273 52.806 -73.0321
9.521484 54.435 -85.7512
9.887695 55.252 -96.2734
10.253906 55.680 -101.1270
10.620117 56.634 -99.8337
10.986328 58.693 -98.9366
11.352539 61.146 -104.0698
11.718750 63.181 -114.1138
12.084961 64.482 -126.0174
12.451172 64.977 -136.8496
12.817383 64.764 -143.1570
13.183594 64.448 -140.8181
13.549805 65.457 -131.4924
13.916016 68.039 -127.1129
14.282227 70.795 -131.7804
14.648438 72.994 -141.9466
15.014648 74.505 -154.5440
15.380859 75.342 -167.6866
15.747070 75.532 -179.8864
16.113281 75.122 170.5991
16.479492 74.312 166.2076
16.845703 73.749 168.9168
17.211914 74.369 175.0612
17.578125 76.006 176.4738
17.944336 77.677 171.1803
18.310547 78.838 161.6883
18.676758 79.329 150.5031
19.042969 79.105 139.5990
19.409180 78.150 131.0147
19.775391 76.536 127.6317
20.141602 74.728 133.4547
20.507812 74.021 148.9134
20.874023 75.127 164.0478
21.240234 77.001 172.7370
21.606445 78.963 177.0060
21.972656 80.928 178.4732
22.338867 82.841 177.4276
22.705078 84.586 174.2777
23.071289 86.083 169.9354
23.437500 87.352 165.4513
23.803711 88.487 161.5753
24.169922 89.643 158.4023
24.536133 90.937 155.2913
24.902344 92.374 151.3020
25.268555 93.866 145.8190
25.634766 95.307 138.7563
26.000977 96.620 130.3559
26.367188 97.761 120.9563
26.733398 98.707 110.8921
27.099609 99.443 100.4943
27.465820 99.966 90.1256
27.832031 100.285 80.2061
28.198242 100.439 71.1956
28.564453 100.503 63.4877
28.930664 100.599 57.1818
29.296875 100.849 51.8273
29.663086 101.307 46.4729
30.029297 101.917 40.1869
30.395508 102.551 32.5716
30.761719 103.095 23.8036
31.127930 103.478 14.3757
31.494141 103.680 4.8582
31.860352 103.726 -4.2424
32.226562 103.666 -12.5758
32.592773 103.562 -20.0209
32.958984 103.468 -26.7051
33.325195 103.414 -32.9126
33.691406 103.391 -38.8995
34.057617 103.368 -44.7383
34.423828 103.321 -50.3004
34.790039 103.257 -55.3707
35.156250 103.210 -59.8199
35.522461 103.222 -63.7383
35.888672 103.317 -67.4249
36.254883 103.476 -71.2032
36.621094 103.654 -75.2027
36.987305 103.808 -79.2846
37.353516 103.931 -83.1531
37.719727 104.054 -86.5690
38.085938 104.237 -89.5595
38.452148 104.520 -92.4783
38.818359 104.892 -95.8176
39.184570 105.293 -99.8963
39.550781 105.646 -104.6959
39.916992 105.900 -109.9212
40.283203 106.035 -115.1616
40.649414 106.071 -120.0421
41.015625 106.051 -124.3325
41.381836 106.027 -127.9995
41.748047 106.039 -131.1858
42.114258 106.107 -134.1216
42.480469 106.233 -137.0286
42.846680 106.402 -140.0729
43.212891 106.602 -143.3642
43.579102 106.807 -146.9605
43.945312 106.993 -150.8543
44.311523 107.136 -154.9635
44.677734 107.230 -159.1498
45.043945 107.276 -163.2691
45.410156 107.288 -167.2302
45.776367 107.283 -171.0274
46.142578 107.272 -174.7223
46.508789 107.251 -178.3872
46.875000 107.214 177.9482
47.241211 107.152 174.3040
47.607422 107.065 170.7134
47.973633 106.953 167.1810
48.339844 106.815 163.6775
48.706055 106.639 160.1837
49.072266 106.408 156.7504
49.438477 106.108 153.5254
49.804688 105.742 150.7213
50.170898 105.333 148.5314
50.537109 104.921 147.0302
50.903320 104.545 146.1174
51.269531 104.225 145.5616
51.635742 103.955 145.1276
52.001953 103.710 144.6948
52.368164 103.463 144.2886
52.734375 103.198 144.0399
53.100586 102.917 144.1282
53.466797 102.638 144.7276
53.833008 102.400 145.9349
54.199219 102.252 147.6702
54.565430 102.232 149.6234
54.931641 102.339 151.3618
55.297852 102.529 152.5741
55.664062 102.745 153.2385
56.030273 102.951 153.5748
56.396484 103.151 153.8410
56.762695 103.377 154.1289
57.128906 103.656 154.2939
57.495117 103.984 154.0801
57.861328 104.325 153.3369
58.227539 104.640 152.1329
58.593750 104.904 150.6988
58.959961 105.125 149.2759
59.326172 105.329 147.9827
59.692383 105.542 146.7726
60.058594 105.773 145.5070
60.424805 106.014 144.0782
60.791016 106.248 142.4823
61.157227 106.467 140.7960
61.523438 106.673 139.0965
61.889648 106.876 137.4002
62.255859 107.079 135.6648
62.622070 107.281 133.8431
62.988281 107.474 131.9357
63.354492 107.652 129.9959
63.720703 107.822 128.0851
64.086914 107.994 126.2207
64.453125 108.176 124.3584
64.819336 108.369 122.4243
65.185547 108.567 120.3693
65.551758 108.760 118.1997
65.917969 108.943 115.9618
66.284180 109.120 113.6957
66.650391 109.298 111.3983
67.016602 109.481 109.0202
67.382812 109.666 106.4998
67.749023 109.843 103.8062
68.115234 110.000 100.9593
68.481445 110.132 98.0169
68.847656 110.238 95.0419
69.213867 110.323 92.0722
69.580078 110.394 89.1113
69.946289 110.453 86.1399
70.312500 110.497 83.1400
70.678711 110.523 80.1122
71.044922 110.529 77.0783
71.411133 110.514 74.0698
71.777344 110.480 71.1122
72.143555 110.432 68.2159
72.509766 110.370 65.3773
72.875977 110.296 62.5887
73.242188 110.209 59.8485
73.608398 110.108 57.1666
73.974609 109.993 54.5619
74.340820 109.866 52.0541
74.707031 109.732 49.6554
75.073242 109.594 47.3645
75.439453 109.455 45.1685
75.805664 109.316 43.0487
76.171875 109.176 40.9894
76.538086 109.034 38.9846
76.904297 108.885 37.0389
77.270508 108.734 35.1626
77.636719 108.581 33.3639
78.002930 108.428 31.6443
78.369141 108.277 29.9978
78.735352 108.130 28.4171
79.101562 107.984 26.9008
79.467773 107.840 25.4554
79.833984 107.698 24.0929
80.200195 107.561 22.8201
80.566406 107.432 21.6311
80.932617 107.317 20.5053
81.298828 107.217 19.4125
81.665039 107.130 18.3223
82.031250 107.056 17.2117
82.397461 106.990 16.0670
82.763672 106.931 14.8818
83.129883 106.876 13.6546
83.496094 106.822 12.3872
83.862305 106.768 11.0845
84.228516 106.712 9.7531
84.594727 106.653 8.3995
84.960938 106.592 7.0282
85.327148 106.527 5.6437
85.693359 106.458 4.2531
86.059570 106.385 2.8676
86.425781 106.309 1.5010
86.791992 106.230 0.1630
87.158203 106.151 -1.1469
87.524414 106.075 -2.4380
87.890625 106.000 -3.7234
88.256836 105.926 -5.0106
88.623047 105.850 -6.2962
88.989258 105.772 -7.5695
89.355469 105.693 -8.8181
89.721680 105.611 -10.0336
90.087891 105.530 -11.2103
90.454102 105.451 -12.3426
90.820312 105.374 -13.4246
91.186523 105.303 -14.4548
91.552734 105.240 -15.4440
91.918945 105.189 -16.4142
92.285156 105.146 -17.3888
92.651367 105.110 -18.3782
93.017578 105.081 -19.3740
93.383789 105.060 -20.3610
93.750000 105.052 -21.3418
94.116211 105.065 -22.3563
94.482422 105.099 -23.4780
94.848633 105.148 -24.7840
95.214844 105.197 -26.3173
95.581055 105.232 -28.0645
95.947266 105.242 -29.9617
96.313477 105.220 -31.9211
96.679688 105.170 -33.8618
97.045898 105.100 -35.7297
97.412109 105.017 -37.5026
97.778320 104.929 -39.1812
98.144531 104.841 -40.7783
98.510742 104.757 -42.3119
98.876953 104.680 -43.8038
99.243164 104.612 -45.2811
99.609375 104.553 -46.7744
99.975586 104.502 -48.3131
100.341797 104.457 -49.9221
100.708008 104.415 -51.6213
101.074219 104.371 -53.4265
101.440430 104.320 -55.3480
101.806641 104.254 -57.3829
102.172852 104.166 -59.5070
102.539062 104.050 -61.6719
102.905273 103.904 -63.8112
103.271484 103.729 -65.8563
103.637695 103.534 -67.7556
104.003906 103.328 -69.4872
104.370117 103.120 -71.0610
104.736328 102.917 -72.5084
105.102539 102.721 -73.8659
105.468750 102.534 -75.1624
105.834961 102.353 -76.4166
106.201172 102.179 -77.6410
106.567383 102.011 -78.8470
106.933594 101.848 -80.0465
107.299805 101.690 -81.2483
107.666016 101.533 -82.4542
108.032227 101.379 -83.6603
108.398438 101.227 -84.8632
108.764648 101.077 -86.0688
109.130859 100.930 -87.2943
109.497070 100.783 -88.5605
109.863281 100.630 -89.8755
110.229492 100.464 -91.2189
110.595703 100.281 -92.5391
110.961914 100.081 -93.7675
111.328125 99.873 -94.8478
111.694336 99.670 -95.7651
112.060547 99.483 -96.5595
112.426758 99.319 -97.3109
112.792969 99.175 -98.1016
113.159180 99.043 -98.9788
113.525391 98.913 -99.9412
113.891602 98.778 -100.9543
114.257812 98.640 -101.9806
114.624023 98.502 -103.0036
114.990234 98.366 -104.0322
115.356445 98.233 -105.0853
115.722656 98.102 -106.1727
116.088867 97.971 -107.2882
116.455078 97.839 -108.4198
116.821289 97.711 -109.5665
117.187500 97.588 -110.7474
117.553711 97.470 -111.9915
117.919922 97.353 -113.3177
118.286133 97.232 -114.7210
118.652344 97.106 -116.1803
119.018555 96.977 -117.6840
119.384766 96.851 -119.2551
119.750977 96.728 -120.9544
120.117188 96.600 -122.8502
120.483398 96.451 -124.9736
120.849609 96.263 -127.2878
121.215820 96.024 -129.6904
121.582031 95.732 -132.0497
121.948242 95.395 -134.2542
122.314453 95.027 -136.2550
122.680664 94.644 -138.0786
123.046875 94.249 -139.7990
123.413086 93.837 -141.4861
123.779297 93.394 -143.1593
124.145508 92.904 -144.7678
124.511719 92.357 -146.2006
124.877930 91.750 -147.3048
125.244141 91.091 -147.9064
125.610352 90.398 -147.8358
125.976562 89.709 -146.9789
126.342773 89.069 -145.3544
126.708984 88.519 -143.1761
127.075195 88.072 -140.8047
127.441406 87.699 -138.5644
127.807617 87.342 -136.5387
128.173828 86.951 -134.4998
128.540039 86.511 -131.9939
128.906250 86.061 -128.5305
129.272461 85.694 -123.8392
129.638672 85.528 -118.1220
130.004883 85.642 -112.0903
130.371094 86.026 -106.6202
130.737305 86.603 -102.3014
131.103516 87.281 -99.2903
131.469727 87.992 -97.4579
131.835938 88.699 -96.5883
132.202148 89.389 -96.4973
132.568359 90.057 -97.0736
132.934570 90.701 -98.2675
133.300781 91.313 -100.0515
133.666992 91.882 -102.3821
134.033203 92.396 -105.1815
134.399414 92.850 -108.3455
134.765625 93.243 -111.7684
135.131836 93.581 -115.3667
135.498047 93.870 -119.0885
135.864258 94.116 -122.9049
136.230469 94.322 -126.7916
136.596680 94.491 -130.7144
136.962891 94.628 -134.6330
137.329102 94.743 -138.5209
137.695312 94.847 -142.3892
138.061523 94.948 -146.2927
138.427734 95.047 -150.3104
138.793945 95.135 -154.5030
139.160156 95.202 -158.8776
139.526367 95.236 -163.3804
139.892578 95.234 -167.9207
140.258789 95.205 -172.4155
140.625000 95.160 -176.8315
140.991211 95.113 178.7991
141.357422 95.070 174.3980
141.723633 95.025 169.8877
142.089844 94.969 165.2370
142.456055 94.887 160.4778
142.822266 94.774 155.6884
143.188477 94.634 150.9548
143.554688 94.474 146.3347
143.920898 94.307 141.8353
144.287109 94.141 137.4194
144.653320 93.977 133.0295
145.019531 93.811 128.6192
145.385742 93.631 124.1753
145.751953 93.428 119.7267
146.118164 93.193 115.3430
146.484375 92.921 111.1276
146.850586 92.613 107.2065
147.216797 92.280 103.7062
147.583008 91.942 100.7200
147.949219 91.626 98.2699
148.315430 91.357 96.2860
148.681641 91.151 94.6281
149.047852 91.006 93.1471
149.414062 90.913 91.7496
149.780273 90.860 90.4182
150.146484 90.843 89.1808
150.512695 90.865 88.0563
150.878906 90.934 87.0189
151.245117 91.053 86.0027
151.611328 91.218 84.9357
151.977539 91.420 83.7713
152.343750 91.652 82.4958
152.709961 91.908 81.1129
153.076172 92.185 79.6265
153.442383 92.480 78.0331
153.808594 92.788 76.3284
154.174805 93.107 74.5128
154.541016 93.433 72.5926
154.907227 93.765 70.5736
155.273438 94.102 68.4552
155.639648 94.441 66.2316
156.005859 94.781 63.8967
156.372070 95.118 61.4517
156.738281 95.450 58.9055
157.104492 95.774 56.2709
157.470703 96.090 53.5569
157.836914 96.400 50.7638
158.203125 96.701 47.8833
158.569336 96.993 44.9042
158.935547 97.270 41.8201
159.301758 97.528 38.6365
159.667969 97.764 35.3729
160.034180 97.972 32.0609
160.400391 98.152 28.7388
160.766602 98.304 25.4446
161.132812 98.430 22.2100
161.499023 98.535 19.0571
161.865234 98.622 15.9973
162.231445 98.694 13.0334
162.597656 98.753 10.1643
162.963867 98.801 7.3895
163.330078 98.838 4.7133
163.696289 98.866 2.1452
164.062500 98.887 -0.3023
164.428711 98.905 -2.6201
164.794922 98.924 -4.8080
165.161133 98.949 -6.8773
165.527344 98.983 -8.8468
165.893555 99.028 -10.7374
166.259766 99.085 -12.5654
166.625977 99.156 -14.3436
166.992188 99.242 -16.0868
167.358398 99.348 -17.8186
167.724609 99.475 -19.5746
168.090820 99.623 -21.3983
168.457031 99.791 -23.3337
168.823242 99.975 -25.4196
169.189453 100.170 -27.6891
169.555664 100.371 -30.1701
169.921875 100.571 -32.8846
170.288086 100.762 -35.8442
170.654297 100.936 -39.0439
171.020508 101.084 -42.4605
171.386719 101.200 -46.0560
171.752930 101.281 -49.7872
172.119141 101.326 -53.6143
172.485352 101.334 -57.5063
172.851562 101.306 -61.4398
173.217773 101.242 -65.3929
173.583984 101.140 -69.3405
173.950195 101.002 -73.2521
174.316406 100.828 -77.0953
174.682617 100.622 -80.8402
175.048828 100.387 -84.4645
175.415039 100.130 -87.9546
175.781250 99.854 -91.3052
176.147461 99.566 -94.5187
176.513672 99.271 -97.6068
176.879883 98.974 -100.5946
177.246094 98.680 -103.5217
177.612305 98.391 -106.4404
177.978516 98.107 -109.4073
178.344727 97.825 -112.4752
178.710938 97.540 -115.6876
179.077148 97.247 -119.0790
179.443359 96.942 -122.6785
179.809570 96.620 -126.5142
180.175781 96.277 -130.6167
180.541992 95.911 -135.0237
180.908203 95.520 -139.7850
181.274414 95.104 -144.9712
181.640625 94.664 -150.6794
182.006836 94.200 -157.0354
182.373047 93.715 -164.1895
182.739258 93.215 -172.3093
183.105469 92.715 178.4333
183.471680 92.243 167.8831
183.837891 91.847 155.9457
184.204102 91.591 142.6660
184.570312 91.539 128.3134
184.936523 91.734 113.3988
185.302734 92.170 98.5544
185.668945 92.796 84.3291
186.035156 93.536 71.0524
186.401367 94.318 58.8339
186.767578 95.087 47.6422
187.133789 95.808 37.3818
187.500000 96.463 27.9410
187.866211 97.043 19.2145
188.232422 97.547 11.1121
188.598633 97.977 3.5621
188.964844 98.337 -3.4896
189.331055 98.631 -10.0844
189.697266 98.867 -16.2555
190.063477 99.052 -22.0349
190.429688 99.193 -27.4552
190.795898 99.294 -32.5497
191.162109 99.361 -37.3480
191.528320 99.396 -41.8735
191.894531 99.402 -46.1418
192.260742 99.383 -50.1624
192.626953 99.341 -53.9420
192.993164 99.281 -57.4889
193.359375 99.207 -60.8142
193.725586 99.123 -63.9341
194.091797 99.032 -66.8696
194.458008 98.939 -69.6473
194.824219 98.844 -72.2975
195.190430 98.749 -74.8521
195.556641 98.653 -77.3409
195.922852 98.553 -79.7883
196.289062 98.446 -82.2113
196.655273 98.329 -84.6190
197.021484 98.198 -87.0118
197.387695 98.049 -89.3807
197.753906 97.878 -91.7064
198.120117 97.682 -93.9608
198.486328 97.460 -96.1100
198.852539 97.212 -98.1193
199.218750 96.941 -99.9558
199.584961 96.647 -101.5889
199.951172 96.333 -102.9851
200.317383 96.002 -104.1061
200.683594 95.660 -104.9087
201.049805 95.314 -105.3512
201.416016 94.976 -105.4036
201.782227 94.658 -105.0553
202.148438 94.374 -104.3188
202.514648 94.140 -103.2295
202.880859 93.969 -101.8467
203.247070 93.875 -100.2609
203.613281 93.870 -98.6008
203.979492 93.957 -97.0309
204.345703 94.133 -95.7294
204.711914 94.382 -94.8558
205.078125 94.683 -94.5248
205.444336 95.012 -94.7930
205.810547 95.344 -95.6655
206.176758 95.658 -97.1100
206.542969 95.936 -99.0701
206.909180 96.164 -101.4750
207.275391 96.331 -104.2443
207.641602 96.425 -107.2880
208.007812 96.441 -110.5045
208.374023 96.371 -113.7792
208.740234 96.215 -116.9841
209.106445 95.977 -119.9841
209.472656 95.664 -122.6453
209.838867 95.292 -124.8508
210.205078 94.883 -126.5186
210.571289 94.460 -127.6143
210.937500 94.047 -128.1577
211.303711 93.666 -128.2161
211.669922 93.331 -127.8900
212.036133 93.053 -127.3009
212.402344 92.836 -126.5817
212.768555 92.676 -125.8676
213.134766 92.563 -125.2791
213.500977 92.480 -124.8976
213.867188 92.405 -124.7446
214.233398 92.319 -124.7759
214.599609 92.206 -124.8914
214.965820 92.060 -124.9563
215.332031 91.883 -124.8231
215.698242 91.688 -124.3534
216.064453 91.495 -123.4409
216.430664 91.334 -122.0409
216.796875 91.238 -120.1978
217.163086 91.238 -118.0604
217.529297 91.350 -115.8616
217.895508 91.575 -113.8591
218.261719 91.895 -112.2699
218.627930 92.286 -111.2305
218.994141 92.722 -110.7969
219.360352 93.180 -110.9695
219.726562 93.642 -111.7197
220.092773 94.096 -113.0081
220.458984 94.531 -114.7922
220.825195 94.938 -117.0316
221.191406 95.311 -119.6863
221.557617 95.642 -122.7151
221.923828 95.926 -126.0721
222.290039 96.155 -129.7030
222.656250 96.327 -133.5454
223.022461 96.438 -137.5315
223.388672 96.489 -141.5948
223.754883 96.483 -145.6735
224.121094 96.421 -149.7131
224.487305 96.307 -153.6622
224.853516 96.144 -157.4650
225.219727 95.938 -161.0565
225.585938 95.697 -164.3652
225.952148 95.436 -167.3263
226.318359 95.174 -169.9052
226.684570 94.934 -172.1219
227.050781 94.737 -174.0636
227.416992 94.597 -175.8695
227.783203 94.515 -177.6954
228.149414 94.483 -179.6689
228.515625 94.487 178.1392
228.881836 94.512 175.7177
229.248047 94.549 173.1006
229.614258 94.593 170.3444
229.980469 94.646 167.5066
230.346680 94.712 164.6287
230.712891 94.802 161.7239
231.079102 94.923 158.7751
231.445312 95.080 155.7405
231.811523 95.274 152.5693
232.177734 95.501 149.2220
232.543945 95.755 145.6840
232.910156 96.028 141.9683
233.276367 96.316 138.1074
233.642578 96.618 134.1398
234.008789 96.933 130.0953
234.375000 97.261 125.9919
234.741211 97.604 121.8386
235.107422 97.957 117.6451
235.473633 98.318 113.4308
235.839844 98.685 109.2279
236.206055 99.056 105.0769
236.572266 99.435 101.0164
236.938477 99.826 97.0707
237.304688 100.237 93.2423
237.670898 100.673 89.5092
238.037109 101.139 85.8289
238.403320 101.636 82.1472
238.769531 102.163 78.4059
239.135742 102.717 74.5486
239.501953 103.291 70.5254
239.868164 103.879 66.2947
240.234375 104.471 61.8265
240.600586 105.058 57.1052
240.966797 105.628 52.1313
241.333008 106.173 46.9211
241.699219 106.685 41.5046
242.065430 107.156 35.9221
242.431641 107.581 30.2192
242.797852 107.959 24.4441
243.164062 108.286 18.6448
243.530273 108.566 12.8668
243.896484 108.798 7.1512
244.262695 108.986 1.5332
244.628906 109.135 -3.9611
244.995117 109.248 -9.3145
245.361328 109.330 -14.5203
245.727539 109.384 -19.5798
246.093750 109.414 -24.4995
246.459961 109.419 -29.2855
246.826172 109.400 -33.9407
247.192383 109.357 -38.4609
247.558594 109.289 -42.8353
247.924805 109.198 -47.0461
248.291016 109.083 -51.0721
248.657227 108.950 -54.8911
249.023438 108.801 -58.4843
249.389648 108.642 -61.8401
249.755859 108.479 -64.9586
250.122070 108.320 -67.8533
250.488281 108.169 -70.5496
250.854492 108.030 -73.0828
251.220703 107.907 -75.4917
251.586914 107.800 -77.8151
251.953125 107.707 -80.0879
252.319336 107.629 -82.3420
252.685547 107.562 -84.6049
253.051758 107.503 -86.8998
253.417969 107.449 -89.2443
253.784180 107.396 -91.6472
254.150391 107.340 -94.1099
254.516602 107.277 -96.6265
254.882812 107.207 -99.1895
255.249023 107.129 -101.7936
255.615234 107.043 -104.4403
255.981445 106.949 -107.1388
256.347656 106.846 -109.9056
256.713867 106.733 -112.7620
257.080078 106.608 -115.7318
257.446289 106.465 -118.8407
257.812500 106.301 -122.1179
258.178711 106.108 -125.5969
258.544922 105.878 -129.3170
258.911133 105.599 -133.3215
259.277344 105.253 -137.6556
259.643555 104.817 -142.3612
260.009766 104.260 -147.4725
260.375977 103.541 -153.0128
260.742188 102.601 -158.9929
261.108398 101.354 -165.4139
261.474609 99.664 -172.2764
261.840820 97.271 -179.6095
262.207031 93.573 172.4070
262.573242 86.347 162.3542
262.939453 77.450 -8.4056
263.305664 91.017 -26.0854
263.671875 96.019 -35.0470
264.038086 99.050 -43.2683
264.404297 101.143 -51.1886
264.770508 102.669 -58.8738
265.136719 103.804 -66.3217
265.502930 104.649 -73.5161
265.869141 105.268 -80.4451
266.235352 105.704 -87.1035
266.601562 105.987 -93.4958
266.967773 106.138 -99.6306
267.333984 106.172 -105.5166
267.700195 106.096 -111.1577
268.066406 105.916 -116.5493
268.432617 105.633 -121.6790
268.798828 105.245 -126.5234
269.165039 104.747 -131.0474
269.531250 104.130 -135.1909
269.897461 103.379 -138.8511
270.263672 102.475 -141.8540
270.629883 101.398 -143.9116
270.996094 100.129 -144.5566
271.362305 98.667 -143.0400
271.728516 97.073 -138.2129
272.094727 95.566 -128.6521
272.460938 94.646 -113.9851
272.827148 94.831 -97.4170
273.193359 95.988 -83.9937
273.559570 97.543 -75.4976
273.925781 99.104 -70.9370
274.291992 100.533 -68.9639
274.658203 101.802 -68.6226
275.024414 102.926 -69.3220
275.390625 103.926 -70.7063
275.756836 104.823 -72.5645
276.123047 105.635 -74.7734
276.489258 106.375 -77.2612
276.855469 107.053 -79.9861
277.221680 107.674 -82.9216
277.587891 108.243 -86.0496
277.954102 108.760 -89.3528
278.320312 109.226 -92.8110
278.686523 109.641 -96.3984
279.052734 110.003 -100.0820
279.418945 110.312 -103.8245
279.785156 110.571 -107.5867
280.151367 110.781 -111.3306
280.517578 110.945 -115.0215
280.883789 111.067 -118.6313
281.250000 111.152 -122.1387
281.616211 111.203 -125.5283
281.982422 111.227 -128.7930
282.348633 111.225 -131.9297
282.714844 111.203 -134.9409
283.081055 111.161 -137.8308
283.447266 111.101 -140.6030
283.813477 111.026 -143.2593
284.179688 110.935 -145.7993
284.545898 110.829 -148.2178
284.912109 110.709 -150.5068
285.278320 110.577 -152.6548
285.644531 110.434 -154.6487
286.010742 110.283 -156.4768
286.376953 110.130 -158.1313
286.743164 109.978 -159.6138
287.109375 109.832 -160.9355
287.475586 109.698 -162.1191
287.841797 109.577 -163.1958
288.208008 109.470 -164.1992
288.574219 109.377 -165.1602
288.940430 109.296 -166.1001
289.306641 109.223 -167.0293
289.672852 109.156 -167.9500
290.039062 109.095 -168.8611
290.405273 109.039 -169.7629
290.771484 108.988 -170.6602
291.137695 108.942 -171.5610
291.503906 108.900 -172.4746
291.870117 108.861 -173.4082
292.236328 108.823 -174.3645
292.602539 108.785 -175.3452
292.968750 108.745 -176.3506
293.334961 108.701 -177.3811
293.701172 108.652 -178.4370
294.067383 108.595 -179.5186
294.433594 108.528 179.3774
294.799805 108.448 178.2588
295.166016 108.351 177.1401
295.532227 108.232 176.0488
295.898438 108.088 175.0249
296.264648 107.918 174.1218
296.630859 107.721 173.4048
296.997070 107.502 172.9443
297.363281 107.268 172.8098
297.729492 107.030 173.0625
298.095703 106.803 173.7461
298.461914 106.608 174.8730
298.828125 106.463 176.4133
299.194336 106.390 178.2822
299.560547 106.404 -179.6570
299.926758 106.512 -177.5757
